title:1                                                                               , recorded:16.10.16 01.42.38, sampling:128, subject:firsttest                                                                       , labels:COUNTER INTERPOLATED AF3 F7 F3 FC5 T7 P7 O1 O2 P8 T8 FC6 F4 F8 AF4 RAW_CQ GYROX GYROY MARKER MARKER_HARDWARE SYNC TIME_STAMP_s TIME_STAMP_ms CQ_AF3 CQ_F7 CQ_F3 CQ_FC5 CQ_T7 CQ_P7 CQ_O1 CQ_O2 CQ_P8 CQ_T8 CQ_FC6 CQ_F4 CQ_F8 CQ_AF4 CQ_CMS CQ_DRL, chan:40, units:emotiv
27.00000000000000000000, 0.00000000000000000000, 5088.20507812500000000000, 4283.58984375000000000000, 4250.25634765625000000000, 4424.10253906250000000000, 4157.43603515625000000000, 4449.74365234375000000000, 3865.64086914062500000000, 4469.23046875000000000000, 4169.74365234375000000000, 4010.76904296875000000000, 4253.84619140625000000000, 3913.33325195312500000000, 4407.17919921875000000000, 4057.43579101562500000000, 0.00000000000000000000, 1659.00000000000000000000, 1715.00000000000000000000, 0.00000000000000000000, 0.00000000000000000000, 0.00000000000000000000, 89.00000000000000000000, 937.00000000000000000000, 0.00000000000000000000, 0.00000000000000000000, 0.00000000000000000000, 0.00000000000000000000, 0.00000000000000000000, 0.00000000000000000000, 0.00000000000000000000, 0.00000000000000000000, 0.00000000000000000000, 0.00000000000000000000, 0.00000000000000000000, 0.00000000000000000000, 0.00000000000000000000, 0.00000000000000000000, 0.00000000000000000000, 0.00000000000000000000
28.00000000000000000000, 0.00000000000000000000, 5088.20507812500000000000, 4289.23046875000000000000, 4243.58984375000000000000, 4424.61523437500000000000, 4175.38427734375000000000, 4457.43554687500000000000, 3871.79467773437500000000, 4469.23046875000000000000, 4159.48730468750000000000, 4008.71777343750000000000, 4249.74365234375000000000, 3911.28198242187500000000, 4411.79492187500000000000, 4054.87158203125000000000, 0.00000000000000000000, 1663.00000000000000000000, 1711.00000000000000000000, 0.00000000000000000000, 0.00000000000000000000, 0.00000000000000000000, 89.00000000000000000000, 945.00000000000000000000, 0.00000000000000000000, 0.00000000000000000000, 0.00000000000000000000, 0.00000000000000000000, 0.00000000000000000000, 0.00000000000000000000, 0.00000000000000000000, 0.00000000000000000000, 0.00000000000000000000, 0.00000000000000000000, 0.00000000000000000000, 0.00000000000000000000, 0.00000000000000000000, 0.00000000000000000000, 0.00000000000000000000, 0.00000000000000000000
29.00000000000000000000, 0.00000000000000000000, 5089.23046875000000000000, 4282.05126953125000000000, 4241.53857421875000000000, 4424.10253906250000000000, 4158.46142578125000000000, 4450.76904296875000000000, 3867.69213867187500000000, 4462.05126953125000000000, 4152.82031250000000000000, 4002.05126953125000000000, 4250.76904296875000000000, 3912.30761718750000000000, 4419.48730468750000000000, 4054.35888671875000000000, 0.00000000000000000000, 1655.00000000000000000000, 1715.00000000000000000000, 0.00000000000000000000, 0.00000000000000000000, 0.00000000000000000000, 89.00000000000000000000, 953.00000000000000000000, 0.00000000000000000000, 0.00000000000000000000, 0.00000000000000000000, 0.00000000000000000000, 0.00000000000000000000, 0.00000000000000000000, 0.00000000000000000000, 0.00000000000000000000, 0.00000000000000000000, 0.00000000000000000000, 0.00000000000000000000, 0.00000000000000000000, 0.00000000000000000000, 0.00000000000000000000, 0.00000000000000000000, 0.00000000000000000000
30.00000000000000000000, 0.00000000000000000000, 5094.35888671875000000000, 4283.07666015625000000000, 4253.84619140625000000000, 4429.74365234375000000000, 4149.74365234375000000000, 4449.74365234375000000000, 3868.71777343750000000000, 4474.35888671875000000000, 4169.74365234375000000000, 3997.94873046875000000000, 4251.28173828125000000000, 3920.51269531250000000000, 4417.94873046875000000000, 4063.58959960937500000000, 0.00000000000000000000, 1663.00000000000000000000, 1715.00000000000000000000, 0.00000000000000000000, 0.00000000000000000000, 0.00000000000000000000, 89.00000000000000000000, 961.00000000000000000000, 0.00000000000000000000, 0.00000000000000000000, 0.00000000000000000000, 0.00000000000000000000, 0.00000000000000000000, 0.00000000000000000000, 0.00000000000000000000, 0.00000000000000000000, 0.00000000000000000000, 0.00000000000000000000, 0.00000000000000000000, 0.00000000000000000000, 0.00000000000000000000, 0.00000000000000000000, 0.00000000000000000000, 0.00000000000000000000
31.00000000000000000000, 0.00000000000000000000, 5095.38427734375000000000, 4277.43603515625000000000, 4252.82031250000000000000, 4415.38427734375000000000, 4142.56396484375000000000, 4444.61523437500000000000, 3870.76904296875000000000, 4469.74365234375000000000, 4165.64111328125000000000, 3989.74340820312500000000, 4248.71777343750000000000, 3909.74340820312500000000, 4398.97412109375000000000, 4053.33325195312500000000, 0.00000000000000000000, 1659.00000000000000000000, 1715.00000000000000000000, 0.00000000000000000000, 0.00000000000000000000, 0.00000000000000000000, 89.00000000000000000000, 969.00000000000000000000, 0.00000000000000000000, 0.00000000000000000000, 0.00000000000000000000, 0.00000000000000000000, 0.00000000000000000000, 0.00000000000000000000, 0.00000000000000000000, 0.00000000000000000000, 0.00000000000000000000, 0.00000000000000000000, 0.00000000000000000000, 0.00000000000000000000, 0.00000000000000000000, 0.00000000000000000000, 0.00000000000000000000, 0.00000000000000000000
32.00000000000000000000, 0.00000000000000000000, 5092.82031250000000000000, 4285.64111328125000000000, 4252.82031250000000000000, 4422.56396484375000000000, 4148.71777343750000000000, 4446.66650390625000000000, 3872.30761718750000000000, 4470.76904296875000000000, 4159.48730468750000000000, 4009.23071289062500000000, 4246.66650390625000000000, 3908.71777343750000000000, 4411.28173828125000000000, 4052.30761718750000000000, 0.00000000000000000000, 1659.00000000000000000000, 1719.00000000000000000000, 0.00000000000000000000, 0.00000000000000000000, 0.00000000000000000000, 89.00000000000000000000, 977.00000000000000000000, 0.00000000000000000000, 0.00000000000000000000, 0.00000000000000000000, 0.00000000000000000000, 0.00000000000000000000, 0.00000000000000000000, 0.00000000000000000000, 0.00000000000000000000, 0.00000000000000000000, 0.00000000000000000000, 0.00000000000000000000, 0.00000000000000000000, 0.00000000000000000000, 0.00000000000000000000, 0.00000000000000000000, 0.00000000000000000000
33.00000000000000000000, 0.00000000000000000000, 5093.84619140625000000000, 4289.74365234375000000000, 4251.79492187500000000000, 4436.92285156250000000000, 4161.53857421875000000000, 4447.69238281250000000000, 3865.64086914062500000000, 4482.56396484375000000000, 4164.61523437500000000000, 4012.82031250000000000000, 4251.79492187500000000000, 3917.94873046875000000000, 4425.64111328125000000000, 4058.97436523437500000000, 0.00000000000000000000, 1663.00000000000000000000, 1715.00000000000000000000, 0.00000000000000000000, 0.00000000000000000000, 0.00000000000000000000, 89.00000000000000000000, 985.00000000000000000000, 0.00000000000000000000, 0.00000000000000000000, 0.00000000000000000000, 0.00000000000000000000, 0.00000000000000000000, 0.00000000000000000000, 0.00000000000000000000, 0.00000000000000000000, 0.00000000000000000000, 0.00000000000000000000, 0.00000000000000000000, 0.00000000000000000000, 0.00000000000000000000, 0.00000000000000000000, 0.00000000000000000000, 0.00000000000000000000
34.00000000000000000000, 0.00000000000000000000, 5093.84619140625000000000, 4293.33300781250000000000, 4253.84619140625000000000, 4440.51269531250000000000, 4171.79492187500000000000, 4453.33300781250000000000, 3866.66650390625000000000, 4493.33300781250000000000, 4180.51269531250000000000, 4006.66650390625000000000, 4250.25634765625000000000, 3928.20507812500000000000, 4424.10253906250000000000, 4069.74340820312500000000, 0.00000000000000000000, 1659.00000000000000000000, 1719.00000000000000000000, 0.00000000000000000000, 0.00000000000000000000, 0.00000000000000000000, 89.00000000000000000000, 992.00000000000000000000, 0.00000000000000000000, 0.00000000000000000000, 0.00000000000000000000, 0.00000000000000000000, 0.00000000000000000000, 0.00000000000000000000, 0.00000000000000000000, 0.00000000000000000000, 0.00000000000000000000, 0.00000000000000000000, 0.00000000000000000000, 0.00000000000000000000, 0.00000000000000000000, 0.00000000000000000000, 0.00000000000000000000, 0.00000000000000000000
35.00000000000000000000, 0.00000000000000000000, 5089.74365234375000000000, 4291.79492187500000000000, 4250.76904296875000000000, 4430.25634765625000000000, 4162.05126953125000000000, 4451.79492187500000000000, 3869.23071289062500000000, 4473.33300781250000000000, 4177.43603515625000000000, 4005.12817382812500000000, 4247.17919921875000000000, 3920.00000000000000000000, 4408.71777343750000000000, 4064.61523437500000000000, 0.00000000000000000000, 1655.00000000000000000000, 1719.00000000000000000000, 0.00000000000000000000, 0.00000000000000000000, 0.00000000000000000000, 89.00000000000000000000, 1000.00000000000000000000, 0.00000000000000000000, 0.00000000000000000000, 0.00000000000000000000, 0.00000000000000000000, 0.00000000000000000000, 0.00000000000000000000, 0.00000000000000000000, 0.00000000000000000000, 0.00000000000000000000, 0.00000000000000000000, 0.00000000000000000000, 0.00000000000000000000, 0.00000000000000000000, 0.00000000000000000000, 0.00000000000000000000, 0.00000000000000000000
36.00000000000000000000, 0.00000000000000000000, 5087.69238281250000000000, 4291.28173828125000000000, 4252.30761718750000000000, 4428.71777343750000000000, 4154.35888671875000000000, 4450.76904296875000000000, 3871.28198242187500000000, 4458.46142578125000000000, 4175.38427734375000000000, 4011.28198242187500000000, 4249.74365234375000000000, 3915.38452148437500000000, 4410.25634765625000000000, 4058.46142578125000000000, 0.00000000000000000000, 1659.00000000000000000000, 1719.00000000000000000000, 0.00000000000000000000, 0.00000000000000000000, 0.00000000000000000000, 90.00000000000000000000, 8.00000000000000000000, 0.00000000000000000000, 0.00000000000000000000, 0.00000000000000000000, 0.00000000000000000000, 0.00000000000000000000, 0.00000000000000000000, 0.00000000000000000000, 0.00000000000000000000, 0.00000000000000000000, 0.00000000000000000000, 0.00000000000000000000, 0.00000000000000000000, 0.00000000000000000000, 0.00000000000000000000, 0.00000000000000000000, 0.00000000000000000000
37.00000000000000000000, 0.00000000000000000000, 5087.17919921875000000000, 4283.07666015625000000000, 4250.25634765625000000000, 4427.69238281250000000000, 4152.30761718750000000000, 4440.51269531250000000000, 3861.02563476562500000000, 4460.51269531250000000000, 4175.38427734375000000000, 4012.30761718750000000000, 4253.33300781250000000000, 3918.97436523437500000000, 4422.05126953125000000000, 4057.94873046875000000000, 0.00000000000000000000, 1659.00000000000000000000, 1715.00000000000000000000, 0.00000000000000000000, 0.00000000000000000000, 0.00000000000000000000, 90.00000000000000000000, 16.00000000000000000000, 0.00000000000000000000, 0.00000000000000000000, 0.00000000000000000000, 0.00000000000000000000, 0.00000000000000000000, 0.00000000000000000000, 0.00000000000000000000, 0.00000000000000000000, 0.00000000000000000000, 0.00000000000000000000, 0.00000000000000000000, 0.00000000000000000000, 0.00000000000000000000, 0.00000000000000000000, 0.00000000000000000000, 0.00000000000000000000
38.00000000000000000000, 0.00000000000000000000, 5085.12792968750000000000, 4285.12792968750000000000, 4244.10253906250000000000, 4430.25634765625000000000, 4161.02539062500000000000, 4443.07666015625000000000, 3859.48706054687500000000, 4460.00000000000000000000, 4172.30761718750000000000, 4022.05126953125000000000, 4250.25634765625000000000, 3916.41015625000000000000, 4426.66650390625000000000, 4059.48706054687500000000, 0.00000000000000000000, 1651.00000000000000000000, 1723.00000000000000000000, 0.00000000000000000000, 0.00000000000000000000, 0.00000000000000000000, 90.00000000000000000000, 24.00000000000000000000, 0.00000000000000000000, 0.00000000000000000000, 0.00000000000000000000, 0.00000000000000000000, 0.00000000000000000000, 0.00000000000000000000, 0.00000000000000000000, 0.00000000000000000000, 0.00000000000000000000, 0.00000000000000000000, 0.00000000000000000000, 0.00000000000000000000, 0.00000000000000000000, 0.00000000000000000000, 0.00000000000000000000, 0.00000000000000000000
39.00000000000000000000, 0.00000000000000000000, 5083.58984375000000000000, 4285.64111328125000000000, 4239.48730468750000000000, 4422.56396484375000000000, 4163.07666015625000000000, 4453.33300781250000000000, 3866.66650390625000000000, 4454.87158203125000000000, 4169.74365234375000000000, 4025.12817382812500000000, 4249.23046875000000000000, 3909.23071289062500000000, 4417.43554687500000000000, 4053.33325195312500000000, 0.00000000000000000000, 1659.00000000000000000000, 1723.00000000000000000000, 0.00000000000000000000, 0.00000000000000000000, 0.00000000000000000000, 90.00000000000000000000, 32.00000000000000000000, 0.00000000000000000000, 0.00000000000000000000, 0.00000000000000000000, 0.00000000000000000000, 0.00000000000000000000, 0.00000000000000000000, 0.00000000000000000000, 0.00000000000000000000, 0.00000000000000000000, 0.00000000000000000000, 0.00000000000000000000, 0.00000000000000000000, 0.00000000000000000000, 0.00000000000000000000, 0.00000000000000000000, 0.00000000000000000000
40.00000000000000000000, 0.00000000000000000000, 5085.64111328125000000000, 4268.71777343750000000000, 4242.05126953125000000000, 4405.64111328125000000000, 4149.74365234375000000000, 4449.23046875000000000000, 3869.74340820312500000000, 4460.51269531250000000000, 4174.87158203125000000000, 4005.64086914062500000000, 4254.35888671875000000000, 3912.30761718750000000000, 4409.23046875000000000000, 4050.76904296875000000000, 0.00000000000000000000, 1655.00000000000000000000, 1719.00000000000000000000, 0.00000000000000000000, 0.00000000000000000000, 0.00000000000000000000, 90.00000000000000000000, 40.00000000000000000000, 0.00000000000000000000, 0.00000000000000000000, 0.00000000000000000000, 0.00000000000000000000, 0.00000000000000000000, 0.00000000000000000000, 0.00000000000000000000, 0.00000000000000000000, 0.00000000000000000000, 0.00000000000000000000, 0.00000000000000000000, 0.00000000000000000000, 0.00000000000000000000, 0.00000000000000000000, 0.00000000000000000000, 0.00000000000000000000
41.00000000000000000000, 0.00000000000000000000, 5086.15380859375000000000, 4263.07666015625000000000, 4247.69238281250000000000, 4413.84619140625000000000, 4144.61523437500000000000, 4447.69238281250000000000, 3864.61523437500000000000, 4470.76904296875000000000, 4183.58984375000000000000, 4006.66650390625000000000, 4254.35888671875000000000, 3923.07690429687500000000, 4416.41015625000000000000, 4064.61523437500000000000, 0.00000000000000000000, 1655.00000000000000000000, 1723.00000000000000000000, 0.00000000000000000000, 0.00000000000000000000, 0.00000000000000000000, 90.00000000000000000000, 48.00000000000000000000, 0.00000000000000000000, 0.00000000000000000000, 0.00000000000000000000, 0.00000000000000000000, 0.00000000000000000000, 0.00000000000000000000, 0.00000000000000000000, 0.00000000000000000000, 0.00000000000000000000, 0.00000000000000000000, 0.00000000000000000000, 0.00000000000000000000, 0.00000000000000000000, 0.00000000000000000000, 0.00000000000000000000, 0.00000000000000000000
42.00000000000000000000, 0.00000000000000000000, 5086.66650390625000000000, 4274.87158203125000000000, 4243.07666015625000000000, 4424.10253906250000000000, 4150.25634765625000000000, 4456.41015625000000000000, 3867.69213867187500000000, 4463.07666015625000000000, 4174.87158203125000000000, 4016.92309570312500000000, 4250.76904296875000000000, 3917.94873046875000000000, 4417.94873046875000000000, 4064.10253906250000000000, 0.00000000000000000000, 1659.00000000000000000000, 1715.00000000000000000000, 0.00000000000000000000, 0.00000000000000000000, 0.00000000000000000000, 90.00000000000000000000, 55.00000000000000000000, 0.00000000000000000000, 0.00000000000000000000, 0.00000000000000000000, 0.00000000000000000000, 0.00000000000000000000, 0.00000000000000000000, 0.00000000000000000000, 0.00000000000000000000, 0.00000000000000000000, 0.00000000000000000000, 0.00000000000000000000, 0.00000000000000000000, 0.00000000000000000000, 0.00000000000000000000, 0.00000000000000000000, 0.00000000000000000000
43.00000000000000000000, 0.00000000000000000000, 5085.12792968750000000000, 4279.48730468750000000000, 4240.00000000000000000000, 4413.84619140625000000000, 4163.07666015625000000000, 4452.30761718750000000000, 3869.23071289062500000000, 4460.51269531250000000000, 4169.74365234375000000000, 4011.79467773437500000000, 4252.30761718750000000000, 3909.23071289062500000000, 4410.25634765625000000000, 4049.23071289062500000000, 0.00000000000000000000, 1655.00000000000000000000, 1715.00000000000000000000, 0.00000000000000000000, 0.00000000000000000000, 0.00000000000000000000, 90.00000000000000000000, 63.00000000000000000000, 0.00000000000000000000, 0.00000000000000000000, 0.00000000000000000000, 0.00000000000000000000, 0.00000000000000000000, 0.00000000000000000000, 0.00000000000000000000, 0.00000000000000000000, 0.00000000000000000000, 0.00000000000000000000, 0.00000000000000000000, 0.00000000000000000000, 0.00000000000000000000, 0.00000000000000000000, 0.00000000000000000000, 0.00000000000000000000
44.00000000000000000000, 0.00000000000000000000, 5084.61523437500000000000, 4265.64111328125000000000, 4237.43603515625000000000, 4403.07666015625000000000, 4155.89746093750000000000, 4437.43554687500000000000, 3857.94873046875000000000, 4455.38427734375000000000, 4167.17919921875000000000, 3996.41015625000000000000, 4254.35888671875000000000, 3906.15380859375000000000, 4396.41015625000000000000, 4044.61523437500000000000, 0.00000000000000000000, 1655.00000000000000000000, 1715.00000000000000000000, 0.00000000000000000000, 0.00000000000000000000, 0.00000000000000000000, 90.00000000000000000000, 71.00000000000000000000, 0.00000000000000000000, 0.00000000000000000000, 0.00000000000000000000, 0.00000000000000000000, 0.00000000000000000000, 0.00000000000000000000, 0.00000000000000000000, 0.00000000000000000000, 0.00000000000000000000, 0.00000000000000000000, 0.00000000000000000000, 0.00000000000000000000, 0.00000000000000000000, 0.00000000000000000000, 0.00000000000000000000, 0.00000000000000000000
45.00000000000000000000, 0.00000000000000000000, 5086.66650390625000000000, 4275.89746093750000000000, 4246.66650390625000000000, 4424.10253906250000000000, 4140.51269531250000000000, 4448.71777343750000000000, 3858.97436523437500000000, 4459.48730468750000000000, 4171.28173828125000000000, 4020.00000000000000000000, 4253.33300781250000000000, 3918.46142578125000000000, 4407.17919921875000000000, 4060.51269531250000000000, 0.00000000000000000000, 1659.00000000000000000000, 1715.00000000000000000000, 0.00000000000000000000, 0.00000000000000000000, 0.00000000000000000000, 90.00000000000000000000, 79.00000000000000000000, 0.00000000000000000000, 0.00000000000000000000, 0.00000000000000000000, 0.00000000000000000000, 0.00000000000000000000, 0.00000000000000000000, 0.00000000000000000000, 0.00000000000000000000, 0.00000000000000000000, 0.00000000000000000000, 0.00000000000000000000, 0.00000000000000000000, 0.00000000000000000000, 0.00000000000000000000, 0.00000000000000000000, 0.00000000000000000000
46.00000000000000000000, 0.00000000000000000000, 5085.64111328125000000000, 4285.64111328125000000000, 4245.12792968750000000000, 4427.17919921875000000000, 4134.35888671875000000000, 4454.35888671875000000000, 3863.58959960937500000000, 4466.66650390625000000000, 4169.74365234375000000000, 4029.23071289062500000000, 4252.30761718750000000000, 3916.92309570312500000000, 4417.43554687500000000000, 4056.92309570312500000000, 0.00000000000000000000, 1663.00000000000000000000, 1703.00000000000000000000, 0.00000000000000000000, 0.00000000000000000000, 0.00000000000000000000, 90.00000000000000000000, 87.00000000000000000000, 0.00000000000000000000, 0.00000000000000000000, 0.00000000000000000000, 0.00000000000000000000, 0.00000000000000000000, 0.00000000000000000000, 0.00000000000000000000, 0.00000000000000000000, 0.00000000000000000000, 0.00000000000000000000, 0.00000000000000000000, 0.00000000000000000000, 0.00000000000000000000, 0.00000000000000000000, 0.00000000000000000000, 0.00000000000000000000
47.00000000000000000000, 0.00000000000000000000, 5079.48681640625000000000, 4280.51269531250000000000, 4241.02539062500000000000, 4413.33300781250000000000, 4160.00000000000000000000, 4447.17919921875000000000, 3859.48706054687500000000, 4470.25634765625000000000, 4169.74365234375000000000, 4002.56396484375000000000, 4251.79492187500000000000, 3912.82031250000000000000, 4415.38427734375000000000, 4051.79467773437500000000, 0.00000000000000000000, 1659.00000000000000000000, 1707.00000000000000000000, 0.00000000000000000000, 0.00000000000000000000, 0.00000000000000000000, 90.00000000000000000000, 95.00000000000000000000, 0.00000000000000000000, 0.00000000000000000000, 0.00000000000000000000, 0.00000000000000000000, 0.00000000000000000000, 0.00000000000000000000, 0.00000000000000000000, 0.00000000000000000000, 0.00000000000000000000, 0.00000000000000000000, 0.00000000000000000000, 0.00000000000000000000, 0.00000000000000000000, 0.00000000000000000000, 0.00000000000000000000, 0.00000000000000000000
48.00000000000000000000, 0.00000000000000000000, 5080.00000000000000000000, 4266.15380859375000000000, 4237.43603515625000000000, 4401.53857421875000000000, 4161.02539062500000000000, 4438.97412109375000000000, 3854.87158203125000000000, 4457.43554687500000000000, 4160.51269531250000000000, 3983.07690429687500000000, 4249.74365234375000000000, 3910.25634765625000000000, 4401.53857421875000000000, 4049.23071289062500000000, 0.00000000000000000000, 1667.00000000000000000000, 1703.00000000000000000000, 0.00000000000000000000, 0.00000000000000000000, 0.00000000000000000000, 90.00000000000000000000, 103.00000000000000000000, 0.00000000000000000000, 0.00000000000000000000, 0.00000000000000000000, 0.00000000000000000000, 0.00000000000000000000, 0.00000000000000000000, 0.00000000000000000000, 0.00000000000000000000, 0.00000000000000000000, 0.00000000000000000000, 0.00000000000000000000, 0.00000000000000000000, 0.00000000000000000000, 0.00000000000000000000, 0.00000000000000000000, 0.00000000000000000000
49.00000000000000000000, 0.00000000000000000000, 5088.71777343750000000000, 4279.48730468750000000000, 4249.74365234375000000000, 4415.38427734375000000000, 4142.05126953125000000000, 4450.76904296875000000000, 3864.10253906250000000000, 4465.12792968750000000000, 4169.23046875000000000000, 4011.79467773437500000000, 4248.20507812500000000000, 3918.46142578125000000000, 4409.74365234375000000000, 4056.92309570312500000000, 0.00000000000000000000, 1663.00000000000000000000, 1703.00000000000000000000, 0.00000000000000000000, 0.00000000000000000000, 0.00000000000000000000, 90.00000000000000000000, 111.00000000000000000000, 0.00000000000000000000, 0.00000000000000000000, 0.00000000000000000000, 0.00000000000000000000, 0.00000000000000000000, 0.00000000000000000000, 0.00000000000000000000, 0.00000000000000000000, 0.00000000000000000000, 0.00000000000000000000, 0.00000000000000000000, 0.00000000000000000000, 0.00000000000000000000, 0.00000000000000000000, 0.00000000000000000000, 0.00000000000000000000
50.00000000000000000000, 0.00000000000000000000, 5088.20507812500000000000, 4286.15380859375000000000, 4252.82031250000000000000, 4420.00000000000000000000, 4135.38427734375000000000, 4451.79492187500000000000, 3860.00000000000000000000, 4466.15380859375000000000, 4177.94873046875000000000, 4027.17944335937500000000, 4250.76904296875000000000, 3915.89746093750000000000, 4418.46142578125000000000, 4054.87158203125000000000, 0.00000000000000000000, 1663.00000000000000000000, 1703.00000000000000000000, 0.00000000000000000000, 0.00000000000000000000, 0.00000000000000000000, 90.00000000000000000000, 119.00000000000000000000, 0.00000000000000000000, 0.00000000000000000000, 0.00000000000000000000, 0.00000000000000000000, 0.00000000000000000000, 0.00000000000000000000, 0.00000000000000000000, 0.00000000000000000000, 0.00000000000000000000, 0.00000000000000000000, 0.00000000000000000000, 0.00000000000000000000, 0.00000000000000000000, 0.00000000000000000000, 0.00000000000000000000, 0.00000000000000000000
51.00000000000000000000, 0.00000000000000000000, 5083.58984375000000000000, 4290.76904296875000000000, 4255.38427734375000000000, 4427.69238281250000000000, 4161.53857421875000000000, 4453.84619140625000000000, 3857.94873046875000000000, 4462.05126953125000000000, 4183.58984375000000000000, 4023.58959960937500000000, 4249.74365234375000000000, 3923.07690429687500000000, 4429.23046875000000000000, 4064.61523437500000000000, 0.00000000000000000000, 1667.00000000000000000000, 1703.00000000000000000000, 0.00000000000000000000, 0.00000000000000000000, 0.00000000000000000000, 90.00000000000000000000, 126.00000000000000000000, 0.00000000000000000000, 0.00000000000000000000, 0.00000000000000000000, 0.00000000000000000000, 0.00000000000000000000, 0.00000000000000000000, 0.00000000000000000000, 0.00000000000000000000, 0.00000000000000000000, 0.00000000000000000000, 0.00000000000000000000, 0.00000000000000000000, 0.00000000000000000000, 0.00000000000000000000, 0.00000000000000000000, 0.00000000000000000000
52.00000000000000000000, 0.00000000000000000000, 5083.58984375000000000000, 4285.64111328125000000000, 4251.28173828125000000000, 4432.30761718750000000000, 4162.56396484375000000000, 4450.25634765625000000000, 3860.51269531250000000000, 4454.87158203125000000000, 4173.84619140625000000000, 4007.17944335937500000000, 4248.20507812500000000000, 3928.71777343750000000000, 4422.05126953125000000000, 4070.25634765625000000000, 0.00000000000000000000, 1667.00000000000000000000, 1703.00000000000000000000, 0.00000000000000000000, 0.00000000000000000000, 0.00000000000000000000, 90.00000000000000000000, 134.00000000000000000000, 0.00000000000000000000, 0.00000000000000000000, 0.00000000000000000000, 0.00000000000000000000, 0.00000000000000000000, 0.00000000000000000000, 0.00000000000000000000, 0.00000000000000000000, 0.00000000000000000000, 0.00000000000000000000, 0.00000000000000000000, 0.00000000000000000000, 0.00000000000000000000, 0.00000000000000000000, 0.00000000000000000000, 0.00000000000000000000
53.00000000000000000000, 0.00000000000000000000, 5086.66650390625000000000, 4282.05126953125000000000, 4250.76904296875000000000, 4436.41015625000000000000, 4151.28173828125000000000, 4452.82031250000000000000, 3862.56396484375000000000, 4458.46142578125000000000, 4171.79492187500000000000, 4002.56396484375000000000, 4248.20507812500000000000, 3928.71777343750000000000, 4412.82031250000000000000, 4070.76904296875000000000, 0.00000000000000000000, 1663.00000000000000000000, 1707.00000000000000000000, 0.00000000000000000000, 0.00000000000000000000, 0.00000000000000000000, 90.00000000000000000000, 142.00000000000000000000, 0.00000000000000000000, 0.00000000000000000000, 0.00000000000000000000, 0.00000000000000000000, 0.00000000000000000000, 0.00000000000000000000, 0.00000000000000000000, 0.00000000000000000000, 0.00000000000000000000, 0.00000000000000000000, 0.00000000000000000000, 0.00000000000000000000, 0.00000000000000000000, 0.00000000000000000000, 0.00000000000000000000, 0.00000000000000000000
54.00000000000000000000, 0.00000000000000000000, 5085.12792968750000000000, 4276.41015625000000000000, 4250.76904296875000000000, 4418.46142578125000000000, 4145.12792968750000000000, 4455.89746093750000000000, 3860.00000000000000000000, 4460.00000000000000000000, 4170.76904296875000000000, 4009.74340820312500000000, 4250.76904296875000000000, 3921.02563476562500000000, 4409.74365234375000000000, 4060.51269531250000000000, 0.00000000000000000000, 1667.00000000000000000000, 1715.00000000000000000000, 0.00000000000000000000, 0.00000000000000000000, 0.00000000000000000000, 90.00000000000000000000, 150.00000000000000000000, 0.00000000000000000000, 0.00000000000000000000, 0.00000000000000000000, 0.00000000000000000000, 0.00000000000000000000, 0.00000000000000000000, 0.00000000000000000000, 0.00000000000000000000, 0.00000000000000000000, 0.00000000000000000000, 0.00000000000000000000, 0.00000000000000000000, 0.00000000000000000000, 0.00000000000000000000, 0.00000000000000000000, 0.00000000000000000000
55.00000000000000000000, 0.00000000000000000000, 5078.46142578125000000000, 4275.89746093750000000000, 4248.20507812500000000000, 4409.23046875000000000000, 4152.82031250000000000000, 4453.33300781250000000000, 3858.97436523437500000000, 4461.02539062500000000000, 4167.69238281250000000000, 4020.00000000000000000000, 4249.23046875000000000000, 3913.33325195312500000000, 4412.82031250000000000000, 4048.71777343750000000000, 0.00000000000000000000, 1663.00000000000000000000, 1723.00000000000000000000, 0.00000000000000000000, 0.00000000000000000000, 0.00000000000000000000, 90.00000000000000000000, 158.00000000000000000000, 0.00000000000000000000, 0.00000000000000000000, 0.00000000000000000000, 0.00000000000000000000, 0.00000000000000000000, 0.00000000000000000000, 0.00000000000000000000, 0.00000000000000000000, 0.00000000000000000000, 0.00000000000000000000, 0.00000000000000000000, 0.00000000000000000000, 0.00000000000000000000, 0.00000000000000000000, 0.00000000000000000000, 0.00000000000000000000
56.00000000000000000000, 0.00000000000000000000, 5075.89746093750000000000, 4266.66650390625000000000, 4236.92285156250000000000, 4415.38427734375000000000, 4151.28173828125000000000, 4442.56396484375000000000, 3851.79467773437500000000, 4455.38427734375000000000, 4164.10253906250000000000, 4006.66650390625000000000, 4248.71777343750000000000, 3899.48706054687500000000, 4403.07666015625000000000, 4033.84594726562500000000, 0.00000000000000000000, 1659.00000000000000000000, 1727.00000000000000000000, 0.00000000000000000000, 0.00000000000000000000, 0.00000000000000000000, 90.00000000000000000000, 166.00000000000000000000, 0.00000000000000000000, 0.00000000000000000000, 0.00000000000000000000, 0.00000000000000000000, 0.00000000000000000000, 0.00000000000000000000, 0.00000000000000000000, 0.00000000000000000000, 0.00000000000000000000, 0.00000000000000000000, 0.00000000000000000000, 0.00000000000000000000, 0.00000000000000000000, 0.00000000000000000000, 0.00000000000000000000, 0.00000000000000000000
57.00000000000000000000, 0.00000000000000000000, 5077.43554687500000000000, 4264.61523437500000000000, 4236.92285156250000000000, 4414.87158203125000000000, 4149.23046875000000000000, 4445.64111328125000000000, 3856.41015625000000000000, 4452.30761718750000000000, 4169.23046875000000000000, 3993.84594726562500000000, 4252.82031250000000000000, 3896.92309570312500000000, 4398.97412109375000000000, 4032.82031250000000000000, 0.00000000000000000000, 1663.00000000000000000000, 1727.00000000000000000000, 0.00000000000000000000, 0.00000000000000000000, 0.00000000000000000000, 90.00000000000000000000, 174.00000000000000000000, 0.00000000000000000000, 0.00000000000000000000, 0.00000000000000000000, 0.00000000000000000000, 0.00000000000000000000, 0.00000000000000000000, 0.00000000000000000000, 0.00000000000000000000, 0.00000000000000000000, 0.00000000000000000000, 0.00000000000000000000, 0.00000000000000000000, 0.00000000000000000000, 0.00000000000000000000, 0.00000000000000000000, 0.00000000000000000000
58.00000000000000000000, 0.00000000000000000000, 5077.94873046875000000000, 4275.89746093750000000000, 4243.58984375000000000000, 4410.76904296875000000000, 4152.30761718750000000000, 4450.25634765625000000000, 3862.56396484375000000000, 4455.38427734375000000000, 4162.56396484375000000000, 3996.92309570312500000000, 4255.38427734375000000000, 3903.58959960937500000000, 4402.05126953125000000000, 4041.53833007812500000000, 0.00000000000000000000, 1663.00000000000000000000, 1727.00000000000000000000, 0.00000000000000000000, 0.00000000000000000000, 0.00000000000000000000, 90.00000000000000000000, 182.00000000000000000000, 0.00000000000000000000, 0.00000000000000000000, 0.00000000000000000000, 0.00000000000000000000, 0.00000000000000000000, 0.00000000000000000000, 0.00000000000000000000, 0.00000000000000000000, 0.00000000000000000000, 0.00000000000000000000, 0.00000000000000000000, 0.00000000000000000000, 0.00000000000000000000, 0.00000000000000000000, 0.00000000000000000000, 0.00000000000000000000
59.00000000000000000000, 0.00000000000000000000, 5076.92285156250000000000, 4280.51269531250000000000, 4236.41015625000000000000, 4415.89746093750000000000, 4158.97412109375000000000, 4448.20507812500000000000, 3855.89746093750000000000, 4446.66650390625000000000, 4138.97412109375000000000, 3986.15380859375000000000, 4253.33300781250000000000, 3896.41015625000000000000, 4391.79492187500000000000, 4036.92309570312500000000, 0.00000000000000000000, 1655.00000000000000000000, 1735.00000000000000000000, 0.00000000000000000000, 0.00000000000000000000, 0.00000000000000000000, 90.00000000000000000000, 190.00000000000000000000, 0.00000000000000000000, 0.00000000000000000000, 0.00000000000000000000, 0.00000000000000000000, 0.00000000000000000000, 0.00000000000000000000, 0.00000000000000000000, 0.00000000000000000000, 0.00000000000000000000, 0.00000000000000000000, 0.00000000000000000000, 0.00000000000000000000, 0.00000000000000000000, 0.00000000000000000000, 0.00000000000000000000, 0.00000000000000000000
60.00000000000000000000, 0.00000000000000000000, 5072.82031250000000000000, 4274.35888671875000000000, 4227.17919921875000000000, 4422.56396484375000000000, 4162.05126953125000000000, 4457.43554687500000000000, 3853.33325195312500000000, 4440.00000000000000000000, 4140.00000000000000000000, 3973.84594726562500000000, 4253.84619140625000000000, 3884.10253906250000000000, 4381.02539062500000000000, 4026.66650390625000000000, 0.00000000000000000000, 1659.00000000000000000000, 1735.00000000000000000000, 0.00000000000000000000, 0.00000000000000000000, 0.00000000000000000000, 90.00000000000000000000, 197.00000000000000000000, 0.00000000000000000000, 0.00000000000000000000, 0.00000000000000000000, 0.00000000000000000000, 0.00000000000000000000, 0.00000000000000000000, 0.00000000000000000000, 0.00000000000000000000, 0.00000000000000000000, 0.00000000000000000000, 0.00000000000000000000, 0.00000000000000000000, 0.00000000000000000000, 0.00000000000000000000, 0.00000000000000000000, 0.00000000000000000000
61.00000000000000000000, 0.00000000000000000000, 5070.76904296875000000000, 4260.00000000000000000000, 4222.56396484375000000000, 4407.17919921875000000000, 4144.61523437500000000000, 4467.69238281250000000000, 3867.17944335937500000000, 4441.02539062500000000000, 4151.79492187500000000000, 3976.41015625000000000000, 4256.41015625000000000000, 3873.84594726562500000000, 4369.23046875000000000000, 4014.35888671875000000000, 0.00000000000000000000, 1655.00000000000000000000, 1731.00000000000000000000, 0.00000000000000000000, 0.00000000000000000000, 0.00000000000000000000, 90.00000000000000000000, 205.00000000000000000000, 0.00000000000000000000, 0.00000000000000000000, 0.00000000000000000000, 0.00000000000000000000, 0.00000000000000000000, 0.00000000000000000000, 0.00000000000000000000, 0.00000000000000000000, 0.00000000000000000000, 0.00000000000000000000, 0.00000000000000000000, 0.00000000000000000000, 0.00000000000000000000, 0.00000000000000000000, 0.00000000000000000000, 0.00000000000000000000
62.00000000000000000000, 0.00000000000000000000, 5071.28173828125000000000, 4252.30761718750000000000, 4220.00000000000000000000, 4386.66650390625000000000, 4138.97412109375000000000, 4468.71777343750000000000, 3874.87158203125000000000, 4452.30761718750000000000, 4153.33300781250000000000, 3991.28198242187500000000, 4253.84619140625000000000, 3873.84594726562500000000, 4361.02539062500000000000, 4011.28198242187500000000, 0.00000000000000000000, 1655.00000000000000000000, 1739.00000000000000000000, 0.00000000000000000000, 0.00000000000000000000, 0.00000000000000000000, 90.00000000000000000000, 213.00000000000000000000, 0.00000000000000000000, 0.00000000000000000000, 0.00000000000000000000, 0.00000000000000000000, 0.00000000000000000000, 0.00000000000000000000, 0.00000000000000000000, 0.00000000000000000000, 0.00000000000000000000, 0.00000000000000000000, 0.00000000000000000000, 0.00000000000000000000, 0.00000000000000000000, 0.00000000000000000000, 0.00000000000000000000, 0.00000000000000000000
63.00000000000000000000, 0.00000000000000000000, 5070.25634765625000000000, 4249.23046875000000000000, 4218.97412109375000000000, 4381.53857421875000000000, 4147.69238281250000000000, 4459.48730468750000000000, 3867.69213867187500000000, 4456.92285156250000000000, 4151.28173828125000000000, 3981.53833007812500000000, 4249.23046875000000000000, 3880.00000000000000000000, 4361.02539062500000000000, 4017.43579101562500000000, 0.00000000000000000000, 1655.00000000000000000000, 1731.00000000000000000000, 0.00000000000000000000, 0.00000000000000000000, 0.00000000000000000000, 90.00000000000000000000, 221.00000000000000000000, 0.00000000000000000000, 0.00000000000000000000, 0.00000000000000000000, 0.00000000000000000000, 0.00000000000000000000, 0.00000000000000000000, 0.00000000000000000000, 0.00000000000000000000, 0.00000000000000000000, 0.00000000000000000000, 0.00000000000000000000, 0.00000000000000000000, 0.00000000000000000000, 0.00000000000000000000, 0.00000000000000000000, 0.00000000000000000000
64.00000000000000000000, 0.00000000000000000000, 5073.33300781250000000000, 4264.10253906250000000000, 4233.33300781250000000000, 4404.61523437500000000000, 4157.94873046875000000000, 4449.74365234375000000000, 3861.53833007812500000000, 4461.02539062500000000000, 4160.51269531250000000000, 3977.43579101562500000000, 4248.71777343750000000000, 3899.48706054687500000000, 4387.17919921875000000000, 4036.92309570312500000000, 419.00000000000000000000, 1655.00000000000000000000, 1727.00000000000000000000, 0.00000000000000000000, 0.00000000000000000000, 0.00000000000000000000, 90.00000000000000000000, 229.00000000000000000000, 4.00000000000000000000, 0.00000000000000000000, 0.00000000000000000000, 0.00000000000000000000, 0.00000000000000000000, 0.00000000000000000000, 0.00000000000000000000, 0.00000000000000000000, 0.00000000000000000000, 0.00000000000000000000, 0.00000000000000000000, 0.00000000000000000000, 0.00000000000000000000, 0.00000000000000000000, 0.00000000000000000000, 0.00000000000000000000
65.00000000000000000000, 0.00000000000000000000, 5079.48681640625000000000, 4267.17919921875000000000, 4235.38427734375000000000, 4412.30761718750000000000, 4140.51269531250000000000, 4438.97412109375000000000, 3854.35888671875000000000, 4454.35888671875000000000, 4153.84619140625000000000, 3990.76904296875000000000, 4252.30761718750000000000, 3898.46142578125000000000, 4396.41015625000000000000, 4035.38452148437500000000, 441.00000000000000000000, 1655.00000000000000000000, 1727.00000000000000000000, 0.00000000000000000000, 0.00000000000000000000, 0.00000000000000000000, 90.00000000000000000000, 238.00000000000000000000, 4.00000000000000000000, 4.00000000000000000000, 0.00000000000000000000, 0.00000000000000000000, 0.00000000000000000000, 0.00000000000000000000, 0.00000000000000000000, 0.00000000000000000000, 0.00000000000000000000, 0.00000000000000000000, 0.00000000000000000000, 0.00000000000000000000, 0.00000000000000000000, 0.00000000000000000000, 0.00000000000000000000, 0.00000000000000000000
66.00000000000000000000, 0.00000000000000000000, 5075.38427734375000000000, 4268.20507812500000000000, 4234.87158203125000000000, 4406.66650390625000000000, 4130.25634765625000000000, 4442.56396484375000000000, 3853.33325195312500000000, 4461.02539062500000000000, 4156.41015625000000000000, 4015.38452148437500000000, 4251.28173828125000000000, 3894.87158203125000000000, 4394.87158203125000000000, 4034.35888671875000000000, 205.00000000000000000000, 1655.00000000000000000000, 1727.00000000000000000000, 0.00000000000000000000, 0.00000000000000000000, 0.00000000000000000000, 90.00000000000000000000, 246.00000000000000000000, 4.00000000000000000000, 4.00000000000000000000, 2.00000000000000000000, 0.00000000000000000000, 0.00000000000000000000, 0.00000000000000000000, 0.00000000000000000000, 0.00000000000000000000, 0.00000000000000000000, 0.00000000000000000000, 0.00000000000000000000, 0.00000000000000000000, 0.00000000000000000000, 0.00000000000000000000, 2.00000000000000000000, 0.00000000000000000000
67.00000000000000000000, 0.00000000000000000000, 5068.71777343750000000000, 4264.61523437500000000000, 4231.28173828125000000000, 4394.87158203125000000000, 4130.76904296875000000000, 4441.53857421875000000000, 3854.35888671875000000000, 4456.41015625000000000000, 4155.89746093750000000000, 4006.15380859375000000000, 4248.71777343750000000000, 3891.28198242187500000000, 4384.61523437500000000000, 4032.82031250000000000000, 469.00000000000000000000, 1659.00000000000000000000, 1719.00000000000000000000, 0.00000000000000000000, 0.00000000000000000000, 0.00000000000000000000, 90.00000000000000000000, 253.00000000000000000000, 4.00000000000000000000, 4.00000000000000000000, 2.00000000000000000000, 4.00000000000000000000, 0.00000000000000000000, 0.00000000000000000000, 0.00000000000000000000, 0.00000000000000000000, 0.00000000000000000000, 0.00000000000000000000, 0.00000000000000000000, 0.00000000000000000000, 0.00000000000000000000, 0.00000000000000000000, 2.00000000000000000000, 4.00000000000000000000
68.00000000000000000000, 0.00000000000000000000, 5073.84619140625000000000, 4274.35888671875000000000, 4236.41015625000000000000, 4405.12792968750000000000, 4149.74365234375000000000, 4451.79492187500000000000, 3857.94873046875000000000, 4453.33300781250000000000, 4153.84619140625000000000, 3991.79467773437500000000, 4248.20507812500000000000, 3898.97436523437500000000, 4386.66650390625000000000, 4041.53833007812500000000, 478.00000000000000000000, 1655.00000000000000000000, 1719.00000000000000000000, 0.00000000000000000000, 0.00000000000000000000, 0.00000000000000000000, 90.00000000000000000000, 260.00000000000000000000, 4.00000000000000000000, 4.00000000000000000000, 2.00000000000000000000, 4.00000000000000000000, 4.00000000000000000000, 0.00000000000000000000, 0.00000000000000000000, 0.00000000000000000000, 0.00000000000000000000, 0.00000000000000000000, 0.00000000000000000000, 0.00000000000000000000, 0.00000000000000000000, 0.00000000000000000000, 2.00000000000000000000, 4.00000000000000000000
69.00000000000000000000, 0.00000000000000000000, 5077.94873046875000000000, 4275.38427734375000000000, 4237.43603515625000000000, 4412.30761718750000000000, 4152.30761718750000000000, 4456.92285156250000000000, 3853.84594726562500000000, 4454.35888671875000000000, 4153.33300781250000000000, 3985.12817382812500000000, 4249.74365234375000000000, 3901.02563476562500000000, 4387.69238281250000000000, 4043.07690429687500000000, 445.00000000000000000000, 1659.00000000000000000000, 1719.00000000000000000000, 0.00000000000000000000, 0.00000000000000000000, 0.00000000000000000000, 90.00000000000000000000, 268.00000000000000000000, 4.00000000000000000000, 4.00000000000000000000, 2.00000000000000000000, 4.00000000000000000000, 4.00000000000000000000, 4.00000000000000000000, 0.00000000000000000000, 0.00000000000000000000, 0.00000000000000000000, 0.00000000000000000000, 0.00000000000000000000, 0.00000000000000000000, 0.00000000000000000000, 0.00000000000000000000, 2.00000000000000000000, 4.00000000000000000000
70.00000000000000000000, 0.00000000000000000000, 5076.92285156250000000000, 4279.48730468750000000000, 4245.12792968750000000000, 4420.00000000000000000000, 4148.71777343750000000000, 4455.38427734375000000000, 3855.89746093750000000000, 4465.12792968750000000000, 4168.20507812500000000000, 4000.00000000000000000000, 4247.17919921875000000000, 3907.69213867187500000000, 4400.00000000000000000000, 4046.15380859375000000000, 418.00000000000000000000, 1655.00000000000000000000, 1715.00000000000000000000, 0.00000000000000000000, 0.00000000000000000000, 0.00000000000000000000, 90.00000000000000000000, 275.00000000000000000000, 4.00000000000000000000, 4.00000000000000000000, 2.00000000000000000000, 4.00000000000000000000, 4.00000000000000000000, 4.00000000000000000000, 4.00000000000000000000, 0.00000000000000000000, 0.00000000000000000000, 0.00000000000000000000, 0.00000000000000000000, 0.00000000000000000000, 0.00000000000000000000, 0.00000000000000000000, 2.00000000000000000000, 4.00000000000000000000
71.00000000000000000000, 0.00000000000000000000, 5074.35888671875000000000, 4276.41015625000000000000, 4241.53857421875000000000, 4417.94873046875000000000, 4146.15380859375000000000, 4445.12792968750000000000, 3856.41015625000000000000, 4462.05126953125000000000, 4163.07666015625000000000, 4019.48706054687500000000, 4247.17919921875000000000, 3903.58959960937500000000, 4402.56396484375000000000, 4038.97436523437500000000, 395.00000000000000000000, 1655.00000000000000000000, 1719.00000000000000000000, 0.00000000000000000000, 0.00000000000000000000, 0.00000000000000000000, 90.00000000000000000000, 283.00000000000000000000, 4.00000000000000000000, 4.00000000000000000000, 2.00000000000000000000, 4.00000000000000000000, 4.00000000000000000000, 4.00000000000000000000, 4.00000000000000000000, 3.00000000000000000000, 0.00000000000000000000, 0.00000000000000000000, 0.00000000000000000000, 0.00000000000000000000, 0.00000000000000000000, 0.00000000000000000000, 2.00000000000000000000, 4.00000000000000000000
72.00000000000000000000, 0.00000000000000000000, 5075.38427734375000000000, 4281.02539062500000000000, 4241.53857421875000000000, 4420.00000000000000000000, 4153.84619140625000000000, 4452.30761718750000000000, 3861.02563476562500000000, 4466.66650390625000000000, 4158.46142578125000000000, 4037.94873046875000000000, 4250.76904296875000000000, 3902.05126953125000000000, 4406.66650390625000000000, 4043.07690429687500000000, 393.00000000000000000000, 1659.00000000000000000000, 1715.00000000000000000000, 0.00000000000000000000, 0.00000000000000000000, 0.00000000000000000000, 90.00000000000000000000, 292.00000000000000000000, 4.00000000000000000000, 4.00000000000000000000, 2.00000000000000000000, 4.00000000000000000000, 4.00000000000000000000, 4.00000000000000000000, 4.00000000000000000000, 3.00000000000000000000, 4.00000000000000000000, 0.00000000000000000000, 0.00000000000000000000, 0.00000000000000000000, 0.00000000000000000000, 0.00000000000000000000, 2.00000000000000000000, 4.00000000000000000000
73.00000000000000000000, 0.00000000000000000000, 5078.97412109375000000000, 4284.61523437500000000000, 4247.17919921875000000000, 4411.79492187500000000000, 4153.84619140625000000000, 4456.41015625000000000000, 3863.07690429687500000000, 4477.94873046875000000000, 4166.15380859375000000000, 4023.58959960937500000000, 4251.28173828125000000000, 3908.20507812500000000000, 4407.17919921875000000000, 4050.76904296875000000000, 421.00000000000000000000, 1659.00000000000000000000, 1715.00000000000000000000, 0.00000000000000000000, 0.00000000000000000000, 0.00000000000000000000, 90.00000000000000000000, 300.00000000000000000000, 4.00000000000000000000, 4.00000000000000000000, 2.00000000000000000000, 4.00000000000000000000, 4.00000000000000000000, 4.00000000000000000000, 4.00000000000000000000, 3.00000000000000000000, 4.00000000000000000000, 4.00000000000000000000, 0.00000000000000000000, 0.00000000000000000000, 0.00000000000000000000, 0.00000000000000000000, 2.00000000000000000000, 4.00000000000000000000
74.00000000000000000000, 0.00000000000000000000, 5076.92285156250000000000, 4280.51269531250000000000, 4247.69238281250000000000, 4408.71777343750000000000, 4154.87158203125000000000, 4456.92285156250000000000, 3867.17944335937500000000, 4489.23046875000000000000, 4176.41015625000000000000, 4003.58959960937500000000, 4246.66650390625000000000, 3914.87158203125000000000, 4408.71777343750000000000, 4053.33325195312500000000, 431.00000000000000000000, 1655.00000000000000000000, 1719.00000000000000000000, 0.00000000000000000000, 0.00000000000000000000, 0.00000000000000000000, 90.00000000000000000000, 308.00000000000000000000, 4.00000000000000000000, 4.00000000000000000000, 2.00000000000000000000, 4.00000000000000000000, 4.00000000000000000000, 4.00000000000000000000, 4.00000000000000000000, 3.00000000000000000000, 4.00000000000000000000, 4.00000000000000000000, 4.00000000000000000000, 0.00000000000000000000, 0.00000000000000000000, 0.00000000000000000000, 2.00000000000000000000, 4.00000000000000000000
75.00000000000000000000, 0.00000000000000000000, 5071.28173828125000000000, 4270.25634765625000000000, 4241.53857421875000000000, 4414.87158203125000000000, 4153.33300781250000000000, 4454.87158203125000000000, 3865.12817382812500000000, 4492.82031250000000000000, 4176.41015625000000000000, 4012.82031250000000000000, 4247.17919921875000000000, 3912.30761718750000000000, 4410.25634765625000000000, 4050.76904296875000000000, 413.00000000000000000000, 1655.00000000000000000000, 1723.00000000000000000000, 0.00000000000000000000, 0.00000000000000000000, 0.00000000000000000000, 90.00000000000000000000, 317.00000000000000000000, 4.00000000000000000000, 4.00000000000000000000, 2.00000000000000000000, 4.00000000000000000000, 4.00000000000000000000, 4.00000000000000000000, 4.00000000000000000000, 3.00000000000000000000, 4.00000000000000000000, 4.00000000000000000000, 4.00000000000000000000, 4.00000000000000000000, 0.00000000000000000000, 0.00000000000000000000, 2.00000000000000000000, 4.00000000000000000000
76.00000000000000000000, 0.00000000000000000000, 5072.30761718750000000000, 4269.23046875000000000000, 4241.53857421875000000000, 4413.33300781250000000000, 4151.79492187500000000000, 4460.51269531250000000000, 3867.17944335937500000000, 4483.07666015625000000000, 4170.25634765625000000000, 4025.64086914062500000000, 4250.25634765625000000000, 3907.17944335937500000000, 4410.25634765625000000000, 4048.20507812500000000000, 0.00000000000000000000, 1659.00000000000000000000, 1715.00000000000000000000, 0.00000000000000000000, 0.00000000000000000000, 0.00000000000000000000, 90.00000000000000000000, 324.00000000000000000000, 4.00000000000000000000, 4.00000000000000000000, 2.00000000000000000000, 4.00000000000000000000, 4.00000000000000000000, 4.00000000000000000000, 4.00000000000000000000, 3.00000000000000000000, 4.00000000000000000000, 4.00000000000000000000, 4.00000000000000000000, 4.00000000000000000000, 0.00000000000000000000, 0.00000000000000000000, 2.00000000000000000000, 4.00000000000000000000
77.00000000000000000000, 0.00000000000000000000, 5074.35888671875000000000, 4272.82031250000000000000, 4243.07666015625000000000, 4403.58984375000000000000, 4153.33300781250000000000, 4460.00000000000000000000, 3863.07690429687500000000, 4470.76904296875000000000, 4162.05126953125000000000, 4015.89721679687500000000, 4251.28173828125000000000, 3904.61523437500000000000, 4402.56396484375000000000, 4047.17944335937500000000, 403.00000000000000000000, 1651.00000000000000000000, 1723.00000000000000000000, 0.00000000000000000000, 0.00000000000000000000, 0.00000000000000000000, 90.00000000000000000000, 331.00000000000000000000, 4.00000000000000000000, 4.00000000000000000000, 2.00000000000000000000, 4.00000000000000000000, 4.00000000000000000000, 4.00000000000000000000, 4.00000000000000000000, 3.00000000000000000000, 4.00000000000000000000, 4.00000000000000000000, 4.00000000000000000000, 4.00000000000000000000, 0.00000000000000000000, 4.00000000000000000000, 2.00000000000000000000, 4.00000000000000000000
78.00000000000000000000, 0.00000000000000000000, 5071.28173828125000000000, 4271.28173828125000000000, 4235.89746093750000000000, 4404.10253906250000000000, 4153.84619140625000000000, 4441.53857421875000000000, 3851.79467773437500000000, 4460.51269531250000000000, 4150.76904296875000000000, 3996.41015625000000000000, 4251.79492187500000000000, 3897.43579101562500000000, 4385.12792968750000000000, 4041.53833007812500000000, 431.00000000000000000000, 1659.00000000000000000000, 1723.00000000000000000000, 0.00000000000000000000, 0.00000000000000000000, 0.00000000000000000000, 90.00000000000000000000, 339.00000000000000000000, 4.00000000000000000000, 4.00000000000000000000, 2.00000000000000000000, 4.00000000000000000000, 4.00000000000000000000, 4.00000000000000000000, 4.00000000000000000000, 3.00000000000000000000, 4.00000000000000000000, 4.00000000000000000000, 4.00000000000000000000, 4.00000000000000000000, 0.00000000000000000000, 4.00000000000000000000, 2.00000000000000000000, 4.00000000000000000000
79.00000000000000000000, 0.00000000000000000000, 5068.71777343750000000000, 4274.35888671875000000000, 4231.79492187500000000000, 4414.87158203125000000000, 4155.38427734375000000000, 4441.02539062500000000000, 3854.35888671875000000000, 4453.33300781250000000000, 4151.79492187500000000000, 3988.71777343750000000000, 4253.33300781250000000000, 3895.38452148437500000000, 4384.61523437500000000000, 4037.94873046875000000000, 413.00000000000000000000, 1655.00000000000000000000, 1719.00000000000000000000, 0.00000000000000000000, 0.00000000000000000000, 0.00000000000000000000, 90.00000000000000000000, 347.00000000000000000000, 4.00000000000000000000, 4.00000000000000000000, 2.00000000000000000000, 4.00000000000000000000, 4.00000000000000000000, 4.00000000000000000000, 4.00000000000000000000, 3.00000000000000000000, 4.00000000000000000000, 4.00000000000000000000, 4.00000000000000000000, 4.00000000000000000000, 0.00000000000000000000, 4.00000000000000000000, 2.00000000000000000000, 4.00000000000000000000
80.00000000000000000000, 0.00000000000000000000, 5070.76904296875000000000, 4273.84619140625000000000, 4231.28173828125000000000, 4412.30761718750000000000, 4153.84619140625000000000, 4455.89746093750000000000, 3861.02563476562500000000, 4450.76904296875000000000, 4154.87158203125000000000, 3992.30761718750000000000, 4251.79492187500000000000, 3891.28198242187500000000, 4390.76904296875000000000, 4031.79467773437500000000, 0.00000000000000000000, 1659.00000000000000000000, 1723.00000000000000000000, 0.00000000000000000000, 0.00000000000000000000, 0.00000000000000000000, 90.00000000000000000000, 354.00000000000000000000, 4.00000000000000000000, 4.00000000000000000000, 2.00000000000000000000, 4.00000000000000000000, 4.00000000000000000000, 4.00000000000000000000, 4.00000000000000000000, 3.00000000000000000000, 4.00000000000000000000, 4.00000000000000000000, 4.00000000000000000000, 4.00000000000000000000, 0.00000000000000000000, 4.00000000000000000000, 2.00000000000000000000, 4.00000000000000000000
81.00000000000000000000, 0.00000000000000000000, 5069.74365234375000000000, 4271.79492187500000000000, 4235.38427734375000000000, 4407.69238281250000000000, 4150.76904296875000000000, 4454.87158203125000000000, 3854.35888671875000000000, 4461.53857421875000000000, 4157.94873046875000000000, 4006.66650390625000000000, 4250.25634765625000000000, 3892.30761718750000000000, 4391.79492187500000000000, 4036.41015625000000000000, 403.00000000000000000000, 1659.00000000000000000000, 1719.00000000000000000000, 0.00000000000000000000, 0.00000000000000000000, 0.00000000000000000000, 90.00000000000000000000, 363.00000000000000000000, 4.00000000000000000000, 4.00000000000000000000, 2.00000000000000000000, 4.00000000000000000000, 4.00000000000000000000, 4.00000000000000000000, 4.00000000000000000000, 3.00000000000000000000, 4.00000000000000000000, 4.00000000000000000000, 4.00000000000000000000, 4.00000000000000000000, 0.00000000000000000000, 4.00000000000000000000, 2.00000000000000000000, 4.00000000000000000000
82.00000000000000000000, 0.00000000000000000000, 5069.74365234375000000000, 4264.61523437500000000000, 4232.30761718750000000000, 4397.43554687500000000000, 4134.87158203125000000000, 4436.92285156250000000000, 3846.15380859375000000000, 4459.48730468750000000000, 4154.87158203125000000000, 3992.82031250000000000000, 4251.28173828125000000000, 3889.74340820312500000000, 4376.41015625000000000000, 4035.38452148437500000000, 431.00000000000000000000, 1659.00000000000000000000, 1719.00000000000000000000, 0.00000000000000000000, 0.00000000000000000000, 0.00000000000000000000, 90.00000000000000000000, 371.00000000000000000000, 4.00000000000000000000, 4.00000000000000000000, 2.00000000000000000000, 4.00000000000000000000, 4.00000000000000000000, 4.00000000000000000000, 4.00000000000000000000, 3.00000000000000000000, 4.00000000000000000000, 4.00000000000000000000, 4.00000000000000000000, 4.00000000000000000000, 0.00000000000000000000, 4.00000000000000000000, 2.00000000000000000000, 4.00000000000000000000
83.00000000000000000000, 0.00000000000000000000, 5071.28173828125000000000, 4269.23046875000000000000, 4236.92285156250000000000, 4399.48730468750000000000, 4138.97412109375000000000, 4440.00000000000000000000, 3853.33325195312500000000, 4458.46142578125000000000, 4155.38427734375000000000, 3984.61523437500000000000, 4250.76904296875000000000, 3892.82031250000000000000, 4376.41015625000000000000, 4034.35888671875000000000, 413.00000000000000000000, 1655.00000000000000000000, 1719.00000000000000000000, 0.00000000000000000000, 0.00000000000000000000, 0.00000000000000000000, 90.00000000000000000000, 379.00000000000000000000, 4.00000000000000000000, 4.00000000000000000000, 2.00000000000000000000, 4.00000000000000000000, 4.00000000000000000000, 4.00000000000000000000, 4.00000000000000000000, 3.00000000000000000000, 4.00000000000000000000, 4.00000000000000000000, 4.00000000000000000000, 4.00000000000000000000, 0.00000000000000000000, 4.00000000000000000000, 2.00000000000000000000, 4.00000000000000000000
84.00000000000000000000, 0.00000000000000000000, 5066.66650390625000000000, 4265.64111328125000000000, 4235.38427734375000000000, 4406.15380859375000000000, 4150.25634765625000000000, 4445.64111328125000000000, 3854.87158203125000000000, 4451.79492187500000000000, 4147.17919921875000000000, 3989.23071289062500000000, 4250.76904296875000000000, 3885.64086914062500000000, 4378.97412109375000000000, 4027.17944335937500000000, 0.00000000000000000000, 1659.00000000000000000000, 1719.00000000000000000000, 0.00000000000000000000, 0.00000000000000000000, 0.00000000000000000000, 90.00000000000000000000, 386.00000000000000000000, 4.00000000000000000000, 4.00000000000000000000, 2.00000000000000000000, 4.00000000000000000000, 4.00000000000000000000, 4.00000000000000000000, 4.00000000000000000000, 3.00000000000000000000, 4.00000000000000000000, 4.00000000000000000000, 4.00000000000000000000, 4.00000000000000000000, 0.00000000000000000000, 4.00000000000000000000, 2.00000000000000000000, 4.00000000000000000000
85.00000000000000000000, 0.00000000000000000000, 5061.02539062500000000000, 4266.66650390625000000000, 4237.43603515625000000000, 4415.38427734375000000000, 4156.41015625000000000000, 4449.74365234375000000000, 3853.33325195312500000000, 4454.87158203125000000000, 4151.28173828125000000000, 3996.41015625000000000000, 4250.76904296875000000000, 3887.17944335937500000000, 4383.07666015625000000000, 4030.76904296875000000000, 403.00000000000000000000, 1663.00000000000000000000, 1711.00000000000000000000, 0.00000000000000000000, 0.00000000000000000000, 0.00000000000000000000, 90.00000000000000000000, 394.00000000000000000000, 4.00000000000000000000, 4.00000000000000000000, 2.00000000000000000000, 4.00000000000000000000, 4.00000000000000000000, 4.00000000000000000000, 4.00000000000000000000, 3.00000000000000000000, 4.00000000000000000000, 4.00000000000000000000, 4.00000000000000000000, 4.00000000000000000000, 0.00000000000000000000, 4.00000000000000000000, 2.00000000000000000000, 4.00000000000000000000
86.00000000000000000000, 0.00000000000000000000, 5062.05126953125000000000, 4264.61523437500000000000, 4232.30761718750000000000, 4406.66650390625000000000, 4135.38427734375000000000, 4442.56396484375000000000, 3854.87158203125000000000, 4459.48730468750000000000, 4154.87158203125000000000, 3987.69213867187500000000, 4248.71777343750000000000, 3884.10253906250000000000, 4374.87158203125000000000, 4027.69213867187500000000, 431.00000000000000000000, 1655.00000000000000000000, 1715.00000000000000000000, 0.00000000000000000000, 0.00000000000000000000, 0.00000000000000000000, 90.00000000000000000000, 402.00000000000000000000, 4.00000000000000000000, 4.00000000000000000000, 2.00000000000000000000, 4.00000000000000000000, 4.00000000000000000000, 4.00000000000000000000, 4.00000000000000000000, 3.00000000000000000000, 4.00000000000000000000, 4.00000000000000000000, 4.00000000000000000000, 4.00000000000000000000, 0.00000000000000000000, 4.00000000000000000000, 2.00000000000000000000, 4.00000000000000000000
87.00000000000000000000, 0.00000000000000000000, 5064.10253906250000000000, 4269.74365234375000000000, 4230.25634765625000000000, 4411.79492187500000000000, 4133.33300781250000000000, 4436.41015625000000000000, 3861.02563476562500000000, 4467.17919921875000000000, 4163.07666015625000000000, 3994.87158203125000000000, 4245.12792968750000000000, 3882.56396484375000000000, 4382.05126953125000000000, 4024.61523437500000000000, 413.00000000000000000000, 1659.00000000000000000000, 1711.00000000000000000000, 0.00000000000000000000, 0.00000000000000000000, 0.00000000000000000000, 90.00000000000000000000, 410.00000000000000000000, 4.00000000000000000000, 4.00000000000000000000, 2.00000000000000000000, 4.00000000000000000000, 4.00000000000000000000, 4.00000000000000000000, 4.00000000000000000000, 3.00000000000000000000, 4.00000000000000000000, 4.00000000000000000000, 4.00000000000000000000, 4.00000000000000000000, 0.00000000000000000000, 4.00000000000000000000, 2.00000000000000000000, 4.00000000000000000000
88.00000000000000000000, 0.00000000000000000000, 5057.94873046875000000000, 4257.94873046875000000000, 4221.02539062500000000000, 4410.25634765625000000000, 4143.58984375000000000000, 4429.74365234375000000000, 3855.38452148437500000000, 4449.74365234375000000000, 4156.41015625000000000000, 3988.71777343750000000000, 4248.20507812500000000000, 3875.38452148437500000000, 4387.17919921875000000000, 4016.41015625000000000000, 0.00000000000000000000, 1659.00000000000000000000, 1703.00000000000000000000, 0.00000000000000000000, 0.00000000000000000000, 0.00000000000000000000, 90.00000000000000000000, 418.00000000000000000000, 4.00000000000000000000, 4.00000000000000000000, 2.00000000000000000000, 4.00000000000000000000, 4.00000000000000000000, 4.00000000000000000000, 4.00000000000000000000, 3.00000000000000000000, 4.00000000000000000000, 4.00000000000000000000, 4.00000000000000000000, 4.00000000000000000000, 0.00000000000000000000, 4.00000000000000000000, 2.00000000000000000000, 4.00000000000000000000
89.00000000000000000000, 0.00000000000000000000, 5056.41015625000000000000, 4254.35888671875000000000, 4218.97412109375000000000, 4405.12792968750000000000, 4150.76904296875000000000, 4432.82031250000000000000, 3851.79467773437500000000, 4441.02539062500000000000, 4147.69238281250000000000, 3980.51269531250000000000, 4248.71777343750000000000, 3881.02563476562500000000, 4386.66650390625000000000, 4023.58959960937500000000, 403.00000000000000000000, 1659.00000000000000000000, 1707.00000000000000000000, 0.00000000000000000000, 0.00000000000000000000, 0.00000000000000000000, 90.00000000000000000000, 426.00000000000000000000, 4.00000000000000000000, 4.00000000000000000000, 2.00000000000000000000, 4.00000000000000000000, 4.00000000000000000000, 4.00000000000000000000, 4.00000000000000000000, 3.00000000000000000000, 4.00000000000000000000, 4.00000000000000000000, 4.00000000000000000000, 4.00000000000000000000, 0.00000000000000000000, 4.00000000000000000000, 2.00000000000000000000, 4.00000000000000000000
90.00000000000000000000, 0.00000000000000000000, 5059.48681640625000000000, 4255.89746093750000000000, 4219.48730468750000000000, 4402.56396484375000000000, 4140.51269531250000000000, 4425.64111328125000000000, 3847.17944335937500000000, 4449.23046875000000000000, 4140.51269531250000000000, 3975.89721679687500000000, 4245.64111328125000000000, 3887.69213867187500000000, 4378.46142578125000000000, 4029.74340820312500000000, 431.00000000000000000000, 1659.00000000000000000000, 1699.00000000000000000000, 0.00000000000000000000, 0.00000000000000000000, 0.00000000000000000000, 90.00000000000000000000, 434.00000000000000000000, 4.00000000000000000000, 4.00000000000000000000, 2.00000000000000000000, 4.00000000000000000000, 4.00000000000000000000, 4.00000000000000000000, 4.00000000000000000000, 3.00000000000000000000, 4.00000000000000000000, 4.00000000000000000000, 4.00000000000000000000, 4.00000000000000000000, 0.00000000000000000000, 4.00000000000000000000, 2.00000000000000000000, 4.00000000000000000000
91.00000000000000000000, 0.00000000000000000000, 5061.53857421875000000000, 4262.05126953125000000000, 4226.15380859375000000000, 4412.30761718750000000000, 4142.05126953125000000000, 4426.66650390625000000000, 3851.79467773437500000000, 4458.97412109375000000000, 4151.28173828125000000000, 3985.12817382812500000000, 4246.66650390625000000000, 3894.87158203125000000000, 4384.10253906250000000000, 4035.89721679687500000000, 413.00000000000000000000, 1663.00000000000000000000, 1699.00000000000000000000, 0.00000000000000000000, 0.00000000000000000000, 0.00000000000000000000, 90.00000000000000000000, 442.00000000000000000000, 4.00000000000000000000, 4.00000000000000000000, 2.00000000000000000000, 4.00000000000000000000, 4.00000000000000000000, 4.00000000000000000000, 4.00000000000000000000, 3.00000000000000000000, 4.00000000000000000000, 4.00000000000000000000, 4.00000000000000000000, 4.00000000000000000000, 0.00000000000000000000, 4.00000000000000000000, 2.00000000000000000000, 4.00000000000000000000
92.00000000000000000000, 0.00000000000000000000, 5064.61523437500000000000, 4262.05126953125000000000, 4230.25634765625000000000, 4409.74365234375000000000, 4136.92285156250000000000, 4430.25634765625000000000, 3855.38452148437500000000, 4449.74365234375000000000, 4153.84619140625000000000, 3989.74340820312500000000, 4250.76904296875000000000, 3894.87158203125000000000, 4386.66650390625000000000, 4035.38452148437500000000, 0.00000000000000000000, 1659.00000000000000000000, 1699.00000000000000000000, 0.00000000000000000000, 0.00000000000000000000, 0.00000000000000000000, 90.00000000000000000000, 450.00000000000000000000, 4.00000000000000000000, 4.00000000000000000000, 2.00000000000000000000, 4.00000000000000000000, 4.00000000000000000000, 4.00000000000000000000, 4.00000000000000000000, 3.00000000000000000000, 4.00000000000000000000, 4.00000000000000000000, 4.00000000000000000000, 4.00000000000000000000, 0.00000000000000000000, 4.00000000000000000000, 2.00000000000000000000, 4.00000000000000000000
93.00000000000000000000, 0.00000000000000000000, 5067.17919921875000000000, 4267.69238281250000000000, 4236.41015625000000000000, 4407.69238281250000000000, 4130.25634765625000000000, 4436.41015625000000000000, 3861.53833007812500000000, 4448.20507812500000000000, 4152.30761718750000000000, 3991.79467773437500000000, 4249.74365234375000000000, 3895.38452148437500000000, 4391.28173828125000000000, 4036.92309570312500000000, 403.00000000000000000000, 1667.00000000000000000000, 1699.00000000000000000000, 0.00000000000000000000, 0.00000000000000000000, 0.00000000000000000000, 90.00000000000000000000, 457.00000000000000000000, 4.00000000000000000000, 4.00000000000000000000, 2.00000000000000000000, 4.00000000000000000000, 4.00000000000000000000, 4.00000000000000000000, 4.00000000000000000000, 3.00000000000000000000, 4.00000000000000000000, 4.00000000000000000000, 4.00000000000000000000, 4.00000000000000000000, 0.00000000000000000000, 4.00000000000000000000, 2.00000000000000000000, 4.00000000000000000000
94.00000000000000000000, 0.00000000000000000000, 5066.15380859375000000000, 4270.25634765625000000000, 4242.05126953125000000000, 4412.82031250000000000000, 4135.89746093750000000000, 4434.35888671875000000000, 3861.02563476562500000000, 4461.02539062500000000000, 4152.30761718750000000000, 4000.51269531250000000000, 4248.71777343750000000000, 3896.92309570312500000000, 4396.92285156250000000000, 4038.46142578125000000000, 431.00000000000000000000, 1663.00000000000000000000, 1703.00000000000000000000, 0.00000000000000000000, 0.00000000000000000000, 0.00000000000000000000, 90.00000000000000000000, 465.00000000000000000000, 4.00000000000000000000, 4.00000000000000000000, 2.00000000000000000000, 4.00000000000000000000, 4.00000000000000000000, 4.00000000000000000000, 4.00000000000000000000, 3.00000000000000000000, 4.00000000000000000000, 4.00000000000000000000, 4.00000000000000000000, 4.00000000000000000000, 0.00000000000000000000, 4.00000000000000000000, 2.00000000000000000000, 4.00000000000000000000
95.00000000000000000000, 0.00000000000000000000, 5062.05126953125000000000, 4267.17919921875000000000, 4242.05126953125000000000, 4412.82031250000000000000, 4143.58984375000000000000, 4425.12792968750000000000, 3855.89746093750000000000, 4462.56396484375000000000, 4144.61523437500000000000, 3983.07690429687500000000, 4249.74365234375000000000, 3896.41015625000000000000, 4389.23046875000000000000, 4037.94873046875000000000, 413.00000000000000000000, 1671.00000000000000000000, 1703.00000000000000000000, 0.00000000000000000000, 0.00000000000000000000, 0.00000000000000000000, 90.00000000000000000000, 473.00000000000000000000, 4.00000000000000000000, 4.00000000000000000000, 2.00000000000000000000, 4.00000000000000000000, 4.00000000000000000000, 4.00000000000000000000, 4.00000000000000000000, 3.00000000000000000000, 4.00000000000000000000, 4.00000000000000000000, 4.00000000000000000000, 4.00000000000000000000, 0.00000000000000000000, 4.00000000000000000000, 2.00000000000000000000, 4.00000000000000000000
96.00000000000000000000, 0.00000000000000000000, 5063.07666015625000000000, 4264.61523437500000000000, 4240.00000000000000000000, 4408.71777343750000000000, 4143.07666015625000000000, 4426.66650390625000000000, 3855.38452148437500000000, 4453.84619140625000000000, 4143.58984375000000000000, 3958.97436523437500000000, 4249.74365234375000000000, 3901.02563476562500000000, 4376.92285156250000000000, 4041.53833007812500000000, 0.00000000000000000000, 1671.00000000000000000000, 1703.00000000000000000000, 0.00000000000000000000, 0.00000000000000000000, 0.00000000000000000000, 90.00000000000000000000, 481.00000000000000000000, 4.00000000000000000000, 4.00000000000000000000, 2.00000000000000000000, 4.00000000000000000000, 4.00000000000000000000, 4.00000000000000000000, 4.00000000000000000000, 3.00000000000000000000, 4.00000000000000000000, 4.00000000000000000000, 4.00000000000000000000, 4.00000000000000000000, 0.00000000000000000000, 4.00000000000000000000, 2.00000000000000000000, 4.00000000000000000000
97.00000000000000000000, 0.00000000000000000000, 5064.61523437500000000000, 4258.97412109375000000000, 4236.41015625000000000000, 4402.05126953125000000000, 4142.05126953125000000000, 4432.30761718750000000000, 3855.89746093750000000000, 4443.07666015625000000000, 4145.64111328125000000000, 3972.30761718750000000000, 4250.25634765625000000000, 3898.46142578125000000000, 4375.38427734375000000000, 4038.97436523437500000000, 403.00000000000000000000, 1675.00000000000000000000, 1707.00000000000000000000, 0.00000000000000000000, 0.00000000000000000000, 0.00000000000000000000, 90.00000000000000000000, 489.00000000000000000000, 4.00000000000000000000, 4.00000000000000000000, 2.00000000000000000000, 4.00000000000000000000, 4.00000000000000000000, 4.00000000000000000000, 4.00000000000000000000, 3.00000000000000000000, 4.00000000000000000000, 4.00000000000000000000, 4.00000000000000000000, 4.00000000000000000000, 0.00000000000000000000, 4.00000000000000000000, 2.00000000000000000000, 4.00000000000000000000
98.00000000000000000000, 0.00000000000000000000, 5063.58984375000000000000, 4262.05126953125000000000, 4234.87158203125000000000, 4404.61523437500000000000, 4147.69238281250000000000, 4426.66650390625000000000, 3851.28198242187500000000, 4451.28173828125000000000, 4145.64111328125000000000, 4004.10253906250000000000, 4251.28173828125000000000, 3890.76904296875000000000, 4386.66650390625000000000, 4031.79467773437500000000, 431.00000000000000000000, 1667.00000000000000000000, 1711.00000000000000000000, 0.00000000000000000000, 0.00000000000000000000, 0.00000000000000000000, 90.00000000000000000000, 497.00000000000000000000, 4.00000000000000000000, 4.00000000000000000000, 2.00000000000000000000, 4.00000000000000000000, 4.00000000000000000000, 4.00000000000000000000, 4.00000000000000000000, 3.00000000000000000000, 4.00000000000000000000, 4.00000000000000000000, 4.00000000000000000000, 4.00000000000000000000, 0.00000000000000000000, 4.00000000000000000000, 2.00000000000000000000, 4.00000000000000000000
99.00000000000000000000, 0.00000000000000000000, 5062.56396484375000000000, 4263.07666015625000000000, 4229.74365234375000000000, 4407.69238281250000000000, 4137.94873046875000000000, 4416.92285156250000000000, 3848.20507812500000000000, 4455.38427734375000000000, 4143.07666015625000000000, 3998.46142578125000000000, 4251.28173828125000000000, 3885.64086914062500000000, 4388.20507812500000000000, 4026.66650390625000000000, 413.00000000000000000000, 1675.00000000000000000000, 1719.00000000000000000000, 0.00000000000000000000, 0.00000000000000000000, 0.00000000000000000000, 90.00000000000000000000, 505.00000000000000000000, 4.00000000000000000000, 4.00000000000000000000, 2.00000000000000000000, 4.00000000000000000000, 4.00000000000000000000, 4.00000000000000000000, 4.00000000000000000000, 3.00000000000000000000, 4.00000000000000000000, 4.00000000000000000000, 4.00000000000000000000, 4.00000000000000000000, 0.00000000000000000000, 4.00000000000000000000, 2.00000000000000000000, 4.00000000000000000000
100.00000000000000000000, 0.00000000000000000000, 5062.56396484375000000000, 4259.48730468750000000000, 4230.25634765625000000000, 4410.76904296875000000000, 4133.84619140625000000000, 4420.00000000000000000000, 3853.33325195312500000000, 4451.28173828125000000000, 4151.28173828125000000000, 3981.53833007812500000000, 4250.76904296875000000000, 3889.23071289062500000000, 4387.69238281250000000000, 4031.28198242187500000000, 0.00000000000000000000, 1675.00000000000000000000, 1719.00000000000000000000, 0.00000000000000000000, 0.00000000000000000000, 0.00000000000000000000, 90.00000000000000000000, 512.00000000000000000000, 4.00000000000000000000, 4.00000000000000000000, 2.00000000000000000000, 4.00000000000000000000, 4.00000000000000000000, 4.00000000000000000000, 4.00000000000000000000, 3.00000000000000000000, 4.00000000000000000000, 4.00000000000000000000, 4.00000000000000000000, 4.00000000000000000000, 0.00000000000000000000, 4.00000000000000000000, 2.00000000000000000000, 4.00000000000000000000
101.00000000000000000000, 0.00000000000000000000, 5063.58984375000000000000, 4253.33300781250000000000, 4228.71777343750000000000, 4403.58984375000000000000, 4133.84619140625000000000, 4421.02539062500000000000, 3854.35888671875000000000, 4441.53857421875000000000, 4148.20507812500000000000, 3971.28198242187500000000, 4250.76904296875000000000, 3878.97436523437500000000, 4377.43554687500000000000, 4021.02563476562500000000, 403.00000000000000000000, 1671.00000000000000000000, 1723.00000000000000000000, 0.00000000000000000000, 0.00000000000000000000, 0.00000000000000000000, 90.00000000000000000000, 520.00000000000000000000, 4.00000000000000000000, 4.00000000000000000000, 2.00000000000000000000, 4.00000000000000000000, 4.00000000000000000000, 4.00000000000000000000, 4.00000000000000000000, 3.00000000000000000000, 4.00000000000000000000, 4.00000000000000000000, 4.00000000000000000000, 4.00000000000000000000, 0.00000000000000000000, 4.00000000000000000000, 2.00000000000000000000, 4.00000000000000000000
102.00000000000000000000, 0.00000000000000000000, 5063.07666015625000000000, 4267.69238281250000000000, 4234.87158203125000000000, 4407.17919921875000000000, 4144.10253906250000000000, 4431.79492187500000000000, 3853.84594726562500000000, 4446.15380859375000000000, 4153.33300781250000000000, 3991.28198242187500000000, 4249.23046875000000000000, 3885.12817382812500000000, 4388.71777343750000000000, 4028.20507812500000000000, 431.00000000000000000000, 1671.00000000000000000000, 1723.00000000000000000000, 0.00000000000000000000, 0.00000000000000000000, 0.00000000000000000000, 90.00000000000000000000, 528.00000000000000000000, 4.00000000000000000000, 4.00000000000000000000, 2.00000000000000000000, 4.00000000000000000000, 4.00000000000000000000, 4.00000000000000000000, 4.00000000000000000000, 3.00000000000000000000, 4.00000000000000000000, 4.00000000000000000000, 4.00000000000000000000, 4.00000000000000000000, 0.00000000000000000000, 4.00000000000000000000, 2.00000000000000000000, 4.00000000000000000000
103.00000000000000000000, 0.00000000000000000000, 5061.53857421875000000000, 4269.74365234375000000000, 4231.28173828125000000000, 4402.05126953125000000000, 4146.66650390625000000000, 4432.82031250000000000000, 3851.79467773437500000000, 4447.17919921875000000000, 4156.41015625000000000000, 4002.56396484375000000000, 4249.74365234375000000000, 3895.38452148437500000000, 4402.05126953125000000000, 4038.46142578125000000000, 413.00000000000000000000, 1671.00000000000000000000, 1727.00000000000000000000, 0.00000000000000000000, 0.00000000000000000000, 0.00000000000000000000, 90.00000000000000000000, 536.00000000000000000000, 4.00000000000000000000, 4.00000000000000000000, 2.00000000000000000000, 4.00000000000000000000, 4.00000000000000000000, 4.00000000000000000000, 4.00000000000000000000, 3.00000000000000000000, 4.00000000000000000000, 4.00000000000000000000, 4.00000000000000000000, 4.00000000000000000000, 0.00000000000000000000, 4.00000000000000000000, 2.00000000000000000000, 4.00000000000000000000
104.00000000000000000000, 0.00000000000000000000, 5057.94873046875000000000, 4269.23046875000000000000, 4227.69238281250000000000, 4404.61523437500000000000, 4147.17919921875000000000, 4429.23046875000000000000, 3857.43579101562500000000, 4460.00000000000000000000, 4164.10253906250000000000, 4001.02563476562500000000, 4251.28173828125000000000, 3893.33325195312500000000, 4406.66650390625000000000, 4033.84594726562500000000, 0.00000000000000000000, 1671.00000000000000000000, 1727.00000000000000000000, 0.00000000000000000000, 0.00000000000000000000, 0.00000000000000000000, 90.00000000000000000000, 544.00000000000000000000, 4.00000000000000000000, 4.00000000000000000000, 2.00000000000000000000, 4.00000000000000000000, 4.00000000000000000000, 4.00000000000000000000, 4.00000000000000000000, 3.00000000000000000000, 4.00000000000000000000, 4.00000000000000000000, 4.00000000000000000000, 4.00000000000000000000, 0.00000000000000000000, 4.00000000000000000000, 2.00000000000000000000, 4.00000000000000000000
105.00000000000000000000, 0.00000000000000000000, 5056.92285156250000000000, 4260.51269531250000000000, 4222.05126953125000000000, 4406.66650390625000000000, 4130.25634765625000000000, 4425.12792968750000000000, 3855.89746093750000000000, 4466.15380859375000000000, 4162.56396484375000000000, 3996.92309570312500000000, 4251.79492187500000000000, 3875.89746093750000000000, 4393.84619140625000000000, 4015.38452148437500000000, 403.00000000000000000000, 1667.00000000000000000000, 1735.00000000000000000000, 0.00000000000000000000, 0.00000000000000000000, 0.00000000000000000000, 90.00000000000000000000, 552.00000000000000000000, 4.00000000000000000000, 4.00000000000000000000, 2.00000000000000000000, 4.00000000000000000000, 4.00000000000000000000, 4.00000000000000000000, 4.00000000000000000000, 3.00000000000000000000, 4.00000000000000000000, 4.00000000000000000000, 4.00000000000000000000, 4.00000000000000000000, 0.00000000000000000000, 4.00000000000000000000, 2.00000000000000000000, 4.00000000000000000000
106.00000000000000000000, 0.00000000000000000000, 5058.97412109375000000000, 4258.97412109375000000000, 4226.15380859375000000000, 4410.76904296875000000000, 4131.79492187500000000000, 4424.61523437500000000000, 3850.76904296875000000000, 4463.07666015625000000000, 4163.07666015625000000000, 3996.41015625000000000000, 4247.17919921875000000000, 3879.48706054687500000000, 4393.33300781250000000000, 4018.46142578125000000000, 431.00000000000000000000, 1671.00000000000000000000, 1731.00000000000000000000, 0.00000000000000000000, 0.00000000000000000000, 0.00000000000000000000, 90.00000000000000000000, 560.00000000000000000000, 4.00000000000000000000, 4.00000000000000000000, 2.00000000000000000000, 4.00000000000000000000, 4.00000000000000000000, 4.00000000000000000000, 4.00000000000000000000, 3.00000000000000000000, 4.00000000000000000000, 4.00000000000000000000, 4.00000000000000000000, 4.00000000000000000000, 0.00000000000000000000, 4.00000000000000000000, 2.00000000000000000000, 4.00000000000000000000
107.00000000000000000000, 0.00000000000000000000, 5056.41015625000000000000, 4253.84619140625000000000, 4216.92285156250000000000, 4396.41015625000000000000, 4141.02539062500000000000, 4417.43554687500000000000, 3845.64086914062500000000, 4451.28173828125000000000, 4154.87158203125000000000, 3968.20507812500000000000, 4246.66650390625000000000, 3879.48706054687500000000, 4386.66650390625000000000, 4019.48706054687500000000, 413.00000000000000000000, 1663.00000000000000000000, 1727.00000000000000000000, 0.00000000000000000000, 0.00000000000000000000, 0.00000000000000000000, 90.00000000000000000000, 568.00000000000000000000, 4.00000000000000000000, 4.00000000000000000000, 2.00000000000000000000, 4.00000000000000000000, 4.00000000000000000000, 4.00000000000000000000, 4.00000000000000000000, 3.00000000000000000000, 4.00000000000000000000, 4.00000000000000000000, 4.00000000000000000000, 4.00000000000000000000, 0.00000000000000000000, 4.00000000000000000000, 2.00000000000000000000, 4.00000000000000000000
108.00000000000000000000, 0.00000000000000000000, 5049.74365234375000000000, 4260.51269531250000000000, 4211.28173828125000000000, 4391.28173828125000000000, 4146.66650390625000000000, 4432.30761718750000000000, 3854.87158203125000000000, 4455.38427734375000000000, 4154.35888671875000000000, 3978.46142578125000000000, 4249.23046875000000000000, 3877.94873046875000000000, 4383.58984375000000000000, 4020.00000000000000000000, 0.00000000000000000000, 1663.00000000000000000000, 1731.00000000000000000000, 0.00000000000000000000, 0.00000000000000000000, 0.00000000000000000000, 90.00000000000000000000, 576.00000000000000000000, 4.00000000000000000000, 4.00000000000000000000, 2.00000000000000000000, 4.00000000000000000000, 4.00000000000000000000, 4.00000000000000000000, 4.00000000000000000000, 3.00000000000000000000, 4.00000000000000000000, 4.00000000000000000000, 4.00000000000000000000, 4.00000000000000000000, 0.00000000000000000000, 4.00000000000000000000, 2.00000000000000000000, 4.00000000000000000000
109.00000000000000000000, 0.00000000000000000000, 5048.20507812500000000000, 4251.79492187500000000000, 4210.76904296875000000000, 4388.20507812500000000000, 4132.30761718750000000000, 4431.28173828125000000000, 3853.33325195312500000000, 4456.41015625000000000000, 4154.35888671875000000000, 4001.53833007812500000000, 4250.25634765625000000000, 3872.82031250000000000000, 4374.35888671875000000000, 4011.79467773437500000000, 403.00000000000000000000, 1663.00000000000000000000, 1723.00000000000000000000, 0.00000000000000000000, 0.00000000000000000000, 0.00000000000000000000, 90.00000000000000000000, 584.00000000000000000000, 4.00000000000000000000, 4.00000000000000000000, 2.00000000000000000000, 4.00000000000000000000, 4.00000000000000000000, 4.00000000000000000000, 4.00000000000000000000, 3.00000000000000000000, 4.00000000000000000000, 4.00000000000000000000, 4.00000000000000000000, 4.00000000000000000000, 0.00000000000000000000, 4.00000000000000000000, 2.00000000000000000000, 4.00000000000000000000
110.00000000000000000000, 0.00000000000000000000, 5054.35888671875000000000, 4244.61523437500000000000, 4212.30761718750000000000, 4390.76904296875000000000, 4132.30761718750000000000, 4421.53857421875000000000, 3848.71777343750000000000, 4456.41015625000000000000, 4157.94873046875000000000, 3990.76904296875000000000, 4247.17919921875000000000, 3871.79467773437500000000, 4370.25634765625000000000, 4009.74340820312500000000, 431.00000000000000000000, 1659.00000000000000000000, 1723.00000000000000000000, 0.00000000000000000000, 0.00000000000000000000, 0.00000000000000000000, 90.00000000000000000000, 591.00000000000000000000, 4.00000000000000000000, 4.00000000000000000000, 2.00000000000000000000, 4.00000000000000000000, 4.00000000000000000000, 4.00000000000000000000, 4.00000000000000000000, 3.00000000000000000000, 4.00000000000000000000, 4.00000000000000000000, 4.00000000000000000000, 4.00000000000000000000, 0.00000000000000000000, 4.00000000000000000000, 2.00000000000000000000, 4.00000000000000000000
111.00000000000000000000, 0.00000000000000000000, 5054.87158203125000000000, 4254.87158203125000000000, 4207.69238281250000000000, 4394.87158203125000000000, 4140.00000000000000000000, 4424.10253906250000000000, 3849.74340820312500000000, 4460.51269531250000000000, 4155.89746093750000000000, 3981.53833007812500000000, 4248.20507812500000000000, 3872.82031250000000000000, 4372.82031250000000000000, 4014.87158203125000000000, 413.00000000000000000000, 1659.00000000000000000000, 1719.00000000000000000000, 0.00000000000000000000, 0.00000000000000000000, 0.00000000000000000000, 90.00000000000000000000, 599.00000000000000000000, 4.00000000000000000000, 4.00000000000000000000, 2.00000000000000000000, 4.00000000000000000000, 4.00000000000000000000, 4.00000000000000000000, 4.00000000000000000000, 3.00000000000000000000, 4.00000000000000000000, 4.00000000000000000000, 4.00000000000000000000, 4.00000000000000000000, 0.00000000000000000000, 4.00000000000000000000, 2.00000000000000000000, 4.00000000000000000000
112.00000000000000000000, 0.00000000000000000000, 5051.28173828125000000000, 4262.56396484375000000000, 4203.58984375000000000000, 4400.51269531250000000000, 4133.33300781250000000000, 4428.71777343750000000000, 3853.33325195312500000000, 4461.02539062500000000000, 4147.17919921875000000000, 3985.12817382812500000000, 4249.74365234375000000000, 3873.84594726562500000000, 4374.35888671875000000000, 4015.89721679687500000000, 0.00000000000000000000, 1659.00000000000000000000, 1715.00000000000000000000, 0.00000000000000000000, 0.00000000000000000000, 0.00000000000000000000, 90.00000000000000000000, 607.00000000000000000000, 4.00000000000000000000, 4.00000000000000000000, 2.00000000000000000000, 4.00000000000000000000, 4.00000000000000000000, 4.00000000000000000000, 4.00000000000000000000, 3.00000000000000000000, 4.00000000000000000000, 4.00000000000000000000, 4.00000000000000000000, 4.00000000000000000000, 0.00000000000000000000, 4.00000000000000000000, 2.00000000000000000000, 4.00000000000000000000
113.00000000000000000000, 0.00000000000000000000, 5052.82031250000000000000, 4254.35888671875000000000, 4206.66650390625000000000, 4396.41015625000000000000, 4119.48730468750000000000, 4424.10253906250000000000, 3847.69213867187500000000, 4444.10253906250000000000, 4136.92285156250000000000, 3970.25634765625000000000, 4248.71777343750000000000, 3872.82031250000000000000, 4369.23046875000000000000, 4013.33325195312500000000, 403.00000000000000000000, 1655.00000000000000000000, 1711.00000000000000000000, 0.00000000000000000000, 0.00000000000000000000, 0.00000000000000000000, 90.00000000000000000000, 616.00000000000000000000, 4.00000000000000000000, 4.00000000000000000000, 2.00000000000000000000, 4.00000000000000000000, 4.00000000000000000000, 4.00000000000000000000, 4.00000000000000000000, 3.00000000000000000000, 4.00000000000000000000, 4.00000000000000000000, 4.00000000000000000000, 4.00000000000000000000, 0.00000000000000000000, 4.00000000000000000000, 2.00000000000000000000, 4.00000000000000000000
114.00000000000000000000, 0.00000000000000000000, 5057.43554687500000000000, 4251.28173828125000000000, 4216.41015625000000000000, 4388.20507812500000000000, 4124.61523437500000000000, 4424.61523437500000000000, 3844.10253906250000000000, 4432.30761718750000000000, 4134.35888671875000000000, 3969.23071289062500000000, 4248.71777343750000000000, 3878.97436523437500000000, 4370.25634765625000000000, 4021.02563476562500000000, 431.00000000000000000000, 1655.00000000000000000000, 1719.00000000000000000000, 0.00000000000000000000, 0.00000000000000000000, 0.00000000000000000000, 90.00000000000000000000, 624.00000000000000000000, 4.00000000000000000000, 4.00000000000000000000, 2.00000000000000000000, 4.00000000000000000000, 4.00000000000000000000, 4.00000000000000000000, 4.00000000000000000000, 3.00000000000000000000, 4.00000000000000000000, 4.00000000000000000000, 4.00000000000000000000, 4.00000000000000000000, 0.00000000000000000000, 4.00000000000000000000, 2.00000000000000000000, 4.00000000000000000000
115.00000000000000000000, 0.00000000000000000000, 5055.38427734375000000000, 4254.35888671875000000000, 4221.02539062500000000000, 4390.76904296875000000000, 4140.51269531250000000000, 4421.02539062500000000000, 3844.61523437500000000000, 4445.64111328125000000000, 4141.02539062500000000000, 3991.28198242187500000000, 4251.28173828125000000000, 3887.17944335937500000000, 4378.97412109375000000000, 4026.15380859375000000000, 413.00000000000000000000, 1663.00000000000000000000, 1707.00000000000000000000, 0.00000000000000000000, 0.00000000000000000000, 0.00000000000000000000, 90.00000000000000000000, 632.00000000000000000000, 4.00000000000000000000, 4.00000000000000000000, 2.00000000000000000000, 4.00000000000000000000, 4.00000000000000000000, 4.00000000000000000000, 4.00000000000000000000, 3.00000000000000000000, 4.00000000000000000000, 4.00000000000000000000, 4.00000000000000000000, 4.00000000000000000000, 0.00000000000000000000, 4.00000000000000000000, 2.00000000000000000000, 4.00000000000000000000
116.00000000000000000000, 0.00000000000000000000, 5054.35888671875000000000, 4251.79492187500000000000, 4217.43603515625000000000, 4396.92285156250000000000, 4129.23046875000000000000, 4416.41015625000000000000, 3847.17944335937500000000, 4455.38427734375000000000, 4144.10253906250000000000, 3993.33325195312500000000, 4252.82031250000000000000, 3880.51269531250000000000, 4382.05126953125000000000, 4017.94873046875000000000, 0.00000000000000000000, 1655.00000000000000000000, 1711.00000000000000000000, 0.00000000000000000000, 0.00000000000000000000, 0.00000000000000000000, 90.00000000000000000000, 641.00000000000000000000, 4.00000000000000000000, 4.00000000000000000000, 2.00000000000000000000, 4.00000000000000000000, 4.00000000000000000000, 4.00000000000000000000, 4.00000000000000000000, 3.00000000000000000000, 4.00000000000000000000, 4.00000000000000000000, 4.00000000000000000000, 4.00000000000000000000, 0.00000000000000000000, 4.00000000000000000000, 2.00000000000000000000, 4.00000000000000000000
117.00000000000000000000, 0.00000000000000000000, 5058.46142578125000000000, 4257.94873046875000000000, 4225.64111328125000000000, 4400.00000000000000000000, 4120.51269531250000000000, 4427.17919921875000000000, 3850.25634765625000000000, 4461.53857421875000000000, 4149.74365234375000000000, 3995.38452148437500000000, 4254.35888671875000000000, 3882.56396484375000000000, 4386.66650390625000000000, 4026.66650390625000000000, 403.00000000000000000000, 1659.00000000000000000000, 1715.00000000000000000000, 0.00000000000000000000, 0.00000000000000000000, 0.00000000000000000000, 90.00000000000000000000, 648.00000000000000000000, 4.00000000000000000000, 4.00000000000000000000, 2.00000000000000000000, 4.00000000000000000000, 4.00000000000000000000, 4.00000000000000000000, 4.00000000000000000000, 3.00000000000000000000, 4.00000000000000000000, 4.00000000000000000000, 4.00000000000000000000, 4.00000000000000000000, 0.00000000000000000000, 4.00000000000000000000, 2.00000000000000000000, 4.00000000000000000000
118.00000000000000000000, 0.00000000000000000000, 5053.84619140625000000000, 4257.94873046875000000000, 4222.56396484375000000000, 4386.15380859375000000000, 4128.71777343750000000000, 4419.48730468750000000000, 3842.56396484375000000000, 4458.97412109375000000000, 4143.07666015625000000000, 3978.46142578125000000000, 4254.35888671875000000000, 3883.07690429687500000000, 4376.41015625000000000000, 4028.20507812500000000000, 431.00000000000000000000, 1659.00000000000000000000, 1711.00000000000000000000, 0.00000000000000000000, 0.00000000000000000000, 0.00000000000000000000, 90.00000000000000000000, 655.00000000000000000000, 4.00000000000000000000, 4.00000000000000000000, 2.00000000000000000000, 4.00000000000000000000, 4.00000000000000000000, 4.00000000000000000000, 4.00000000000000000000, 3.00000000000000000000, 4.00000000000000000000, 4.00000000000000000000, 4.00000000000000000000, 4.00000000000000000000, 0.00000000000000000000, 4.00000000000000000000, 2.00000000000000000000, 4.00000000000000000000
119.00000000000000000000, 0.00000000000000000000, 5047.17919921875000000000, 4263.07666015625000000000, 4212.82031250000000000000, 4391.28173828125000000000, 4141.53857421875000000000, 4411.79492187500000000000, 3837.94873046875000000000, 4449.74365234375000000000, 4143.58984375000000000000, 3963.07690429687500000000, 4252.30761718750000000000, 3881.02563476562500000000, 4374.87158203125000000000, 4023.58959960937500000000, 413.00000000000000000000, 1659.00000000000000000000, 1715.00000000000000000000, 0.00000000000000000000, 0.00000000000000000000, 0.00000000000000000000, 90.00000000000000000000, 663.00000000000000000000, 4.00000000000000000000, 4.00000000000000000000, 2.00000000000000000000, 4.00000000000000000000, 4.00000000000000000000, 4.00000000000000000000, 4.00000000000000000000, 3.00000000000000000000, 4.00000000000000000000, 4.00000000000000000000, 4.00000000000000000000, 4.00000000000000000000, 0.00000000000000000000, 4.00000000000000000000, 2.00000000000000000000, 4.00000000000000000000
120.00000000000000000000, 0.00000000000000000000, 5052.82031250000000000000, 4264.10253906250000000000, 4213.84619140625000000000, 4406.15380859375000000000, 4129.23046875000000000000, 4422.05126953125000000000, 3847.17944335937500000000, 4439.48730468750000000000, 4149.23046875000000000000, 3978.97436523437500000000, 4250.76904296875000000000, 3877.94873046875000000000, 4374.87158203125000000000, 4015.89721679687500000000, 0.00000000000000000000, 1663.00000000000000000000, 1715.00000000000000000000, 0.00000000000000000000, 0.00000000000000000000, 0.00000000000000000000, 90.00000000000000000000, 670.00000000000000000000, 4.00000000000000000000, 4.00000000000000000000, 2.00000000000000000000, 4.00000000000000000000, 4.00000000000000000000, 4.00000000000000000000, 4.00000000000000000000, 3.00000000000000000000, 4.00000000000000000000, 4.00000000000000000000, 4.00000000000000000000, 4.00000000000000000000, 0.00000000000000000000, 4.00000000000000000000, 2.00000000000000000000, 4.00000000000000000000
121.00000000000000000000, 0.00000000000000000000, 5057.94873046875000000000, 4266.15380859375000000000, 4229.74365234375000000000, 4416.41015625000000000000, 4129.74365234375000000000, 4435.89746093750000000000, 3862.56396484375000000000, 4460.51269531250000000000, 4160.51269531250000000000, 4008.71777343750000000000, 4247.69238281250000000000, 3884.61523437500000000000, 4376.92285156250000000000, 4020.00000000000000000000, 403.00000000000000000000, 1663.00000000000000000000, 1715.00000000000000000000, 0.00000000000000000000, 0.00000000000000000000, 0.00000000000000000000, 90.00000000000000000000, 677.00000000000000000000, 4.00000000000000000000, 4.00000000000000000000, 2.00000000000000000000, 4.00000000000000000000, 4.00000000000000000000, 4.00000000000000000000, 4.00000000000000000000, 3.00000000000000000000, 4.00000000000000000000, 4.00000000000000000000, 4.00000000000000000000, 4.00000000000000000000, 0.00000000000000000000, 4.00000000000000000000, 2.00000000000000000000, 4.00000000000000000000
122.00000000000000000000, 0.00000000000000000000, 5051.28173828125000000000, 4262.56396484375000000000, 4221.53857421875000000000, 4404.61523437500000000000, 4135.89746093750000000000, 4425.12792968750000000000, 3853.84594726562500000000, 4468.20507812500000000000, 4153.33300781250000000000, 3996.41015625000000000000, 4247.17919921875000000000, 3875.89746093750000000000, 4375.38427734375000000000, 4015.38452148437500000000, 431.00000000000000000000, 1663.00000000000000000000, 1715.00000000000000000000, 0.00000000000000000000, 0.00000000000000000000, 0.00000000000000000000, 90.00000000000000000000, 685.00000000000000000000, 4.00000000000000000000, 4.00000000000000000000, 2.00000000000000000000, 4.00000000000000000000, 4.00000000000000000000, 4.00000000000000000000, 4.00000000000000000000, 3.00000000000000000000, 4.00000000000000000000, 4.00000000000000000000, 4.00000000000000000000, 4.00000000000000000000, 0.00000000000000000000, 4.00000000000000000000, 2.00000000000000000000, 4.00000000000000000000
123.00000000000000000000, 0.00000000000000000000, 5045.64111328125000000000, 4266.15380859375000000000, 4209.74365234375000000000, 4405.12792968750000000000, 4136.92285156250000000000, 4418.46142578125000000000, 3842.05126953125000000000, 4453.84619140625000000000, 4148.71777343750000000000, 3984.61523437500000000000, 4249.74365234375000000000, 3875.38452148437500000000, 4390.76904296875000000000, 4018.97436523437500000000, 413.00000000000000000000, 1663.00000000000000000000, 1719.00000000000000000000, 0.00000000000000000000, 0.00000000000000000000, 0.00000000000000000000, 90.00000000000000000000, 693.00000000000000000000, 4.00000000000000000000, 4.00000000000000000000, 2.00000000000000000000, 4.00000000000000000000, 4.00000000000000000000, 4.00000000000000000000, 4.00000000000000000000, 3.00000000000000000000, 4.00000000000000000000, 4.00000000000000000000, 4.00000000000000000000, 4.00000000000000000000, 0.00000000000000000000, 4.00000000000000000000, 2.00000000000000000000, 4.00000000000000000000
124.00000000000000000000, 0.00000000000000000000, 5043.58984375000000000000, 4256.41015625000000000000, 4203.07666015625000000000, 4404.61523437500000000000, 4120.00000000000000000000, 4416.41015625000000000000, 3843.07690429687500000000, 4441.02539062500000000000, 4143.07666015625000000000, 3973.33325195312500000000, 4249.74365234375000000000, 3874.87158203125000000000, 4390.76904296875000000000, 4015.38452148437500000000, 0.00000000000000000000, 1667.00000000000000000000, 1715.00000000000000000000, 0.00000000000000000000, 0.00000000000000000000, 0.00000000000000000000, 90.00000000000000000000, 701.00000000000000000000, 4.00000000000000000000, 4.00000000000000000000, 2.00000000000000000000, 4.00000000000000000000, 4.00000000000000000000, 4.00000000000000000000, 4.00000000000000000000, 3.00000000000000000000, 4.00000000000000000000, 4.00000000000000000000, 4.00000000000000000000, 4.00000000000000000000, 0.00000000000000000000, 4.00000000000000000000, 2.00000000000000000000, 4.00000000000000000000
125.00000000000000000000, 0.00000000000000000000, 5045.12792968750000000000, 4257.94873046875000000000, 4211.79492187500000000000, 4406.66650390625000000000, 4127.69238281250000000000, 4423.07666015625000000000, 3854.35888671875000000000, 4462.56396484375000000000, 4149.74365234375000000000, 3981.53833007812500000000, 4247.69238281250000000000, 3877.43579101562500000000, 4388.71777343750000000000, 4016.92309570312500000000, 403.00000000000000000000, 1663.00000000000000000000, 1719.00000000000000000000, 0.00000000000000000000, 0.00000000000000000000, 0.00000000000000000000, 90.00000000000000000000, 710.00000000000000000000, 4.00000000000000000000, 4.00000000000000000000, 2.00000000000000000000, 4.00000000000000000000, 4.00000000000000000000, 4.00000000000000000000, 4.00000000000000000000, 3.00000000000000000000, 4.00000000000000000000, 4.00000000000000000000, 4.00000000000000000000, 4.00000000000000000000, 0.00000000000000000000, 4.00000000000000000000, 2.00000000000000000000, 4.00000000000000000000
126.00000000000000000000, 0.00000000000000000000, 5048.20507812500000000000, 4255.89746093750000000000, 4215.89746093750000000000, 4403.07666015625000000000, 4128.71777343750000000000, 4422.05126953125000000000, 3851.28198242187500000000, 4466.15380859375000000000, 4154.35888671875000000000, 3991.28198242187500000000, 4250.76904296875000000000, 3874.35888671875000000000, 4383.07666015625000000000, 4017.43579101562500000000, 431.00000000000000000000, 1667.00000000000000000000, 1719.00000000000000000000, 0.00000000000000000000, 0.00000000000000000000, 0.00000000000000000000, 90.00000000000000000000, 718.00000000000000000000, 4.00000000000000000000, 4.00000000000000000000, 2.00000000000000000000, 4.00000000000000000000, 4.00000000000000000000, 4.00000000000000000000, 4.00000000000000000000, 3.00000000000000000000, 4.00000000000000000000, 4.00000000000000000000, 4.00000000000000000000, 4.00000000000000000000, 0.00000000000000000000, 4.00000000000000000000, 2.00000000000000000000, 4.00000000000000000000
127.00000000000000000000, 0.00000000000000000000, 5046.15380859375000000000, 4251.79492187500000000000, 4214.35888671875000000000, 4405.12792968750000000000, 4122.56396484375000000000, 4422.05126953125000000000, 3844.61523437500000000000, 4449.23046875000000000000, 4155.38427734375000000000, 3991.79467773437500000000, 4250.25634765625000000000, 3874.87158203125000000000, 4382.56396484375000000000, 4019.48706054687500000000, 413.00000000000000000000, 1667.00000000000000000000, 1715.00000000000000000000, 0.00000000000000000000, 0.00000000000000000000, 0.00000000000000000000, 90.00000000000000000000, 725.00000000000000000000, 4.00000000000000000000, 4.00000000000000000000, 2.00000000000000000000, 4.00000000000000000000, 4.00000000000000000000, 4.00000000000000000000, 4.00000000000000000000, 3.00000000000000000000, 4.00000000000000000000, 4.00000000000000000000, 4.00000000000000000000, 4.00000000000000000000, 0.00000000000000000000, 4.00000000000000000000, 2.00000000000000000000, 4.00000000000000000000
128.00000000000000000000, 0.00000000000000000000, 5041.53857421875000000000, 4248.20507812500000000000, 4207.17919921875000000000, 4400.00000000000000000000, 4126.66650390625000000000, 4418.97412109375000000000, 3837.43579101562500000000, 4438.97412109375000000000, 4144.10253906250000000000, 3980.00000000000000000000, 4246.15380859375000000000, 3873.33325195312500000000, 4380.00000000000000000000, 4014.87158203125000000000, 0.00000000000000000000, 1663.00000000000000000000, 1715.00000000000000000000, 0.00000000000000000000, 0.00000000000000000000, 0.00000000000000000000, 90.00000000000000000000, 733.00000000000000000000, 4.00000000000000000000, 4.00000000000000000000, 2.00000000000000000000, 4.00000000000000000000, 4.00000000000000000000, 4.00000000000000000000, 4.00000000000000000000, 3.00000000000000000000, 4.00000000000000000000, 4.00000000000000000000, 4.00000000000000000000, 4.00000000000000000000, 0.00000000000000000000, 4.00000000000000000000, 2.00000000000000000000, 4.00000000000000000000
0.00000000000000000000, 0.00000000000000000000, 5045.64111328125000000000, 4255.38427734375000000000, 4207.17919921875000000000, 4397.43554687500000000000, 4140.00000000000000000000, 4423.07666015625000000000, 3836.41015625000000000000, 4445.64111328125000000000, 4141.02539062500000000000, 3980.00000000000000000000, 4246.15380859375000000000, 3875.89746093750000000000, 4386.15380859375000000000, 4015.89721679687500000000, 418.00000000000000000000, 1663.00000000000000000000, 1715.00000000000000000000, 0.00000000000000000000, 0.00000000000000000000, 0.00000000000000000000, 90.00000000000000000000, 741.00000000000000000000, 4.00000000000000000000, 4.00000000000000000000, 2.00000000000000000000, 4.00000000000000000000, 4.00000000000000000000, 4.00000000000000000000, 4.00000000000000000000, 3.00000000000000000000, 4.00000000000000000000, 4.00000000000000000000, 4.00000000000000000000, 4.00000000000000000000, 0.00000000000000000000, 4.00000000000000000000, 2.00000000000000000000, 4.00000000000000000000
1.00000000000000000000, 0.00000000000000000000, 5048.20507812500000000000, 4251.28173828125000000000, 4206.15380859375000000000, 4392.82031250000000000000, 4123.58984375000000000000, 4414.87158203125000000000, 3830.76904296875000000000, 4450.25634765625000000000, 4143.07666015625000000000, 3984.61523437500000000000, 4249.74365234375000000000, 3869.74340820312500000000, 4384.61523437500000000000, 4010.25634765625000000000, 435.00000000000000000000, 1663.00000000000000000000, 1715.00000000000000000000, 0.00000000000000000000, 0.00000000000000000000, 0.00000000000000000000, 90.00000000000000000000, 748.00000000000000000000, 4.00000000000000000000, 4.00000000000000000000, 2.00000000000000000000, 4.00000000000000000000, 4.00000000000000000000, 4.00000000000000000000, 4.00000000000000000000, 3.00000000000000000000, 4.00000000000000000000, 4.00000000000000000000, 4.00000000000000000000, 4.00000000000000000000, 0.00000000000000000000, 4.00000000000000000000, 2.00000000000000000000, 4.00000000000000000000
2.00000000000000000000, 0.00000000000000000000, 5044.61523437500000000000, 4240.51269531250000000000, 4200.00000000000000000000, 4391.28173828125000000000, 4105.64111328125000000000, 4409.23046875000000000000, 3831.28198242187500000000, 4452.82031250000000000000, 4146.15380859375000000000, 3984.61523437500000000000, 4250.25634765625000000000, 3861.02563476562500000000, 4375.89746093750000000000, 4003.07690429687500000000, 204.00000000000000000000, 1663.00000000000000000000, 1715.00000000000000000000, 0.00000000000000000000, 0.00000000000000000000, 0.00000000000000000000, 90.00000000000000000000, 757.00000000000000000000, 4.00000000000000000000, 4.00000000000000000000, 2.00000000000000000000, 4.00000000000000000000, 4.00000000000000000000, 4.00000000000000000000, 4.00000000000000000000, 3.00000000000000000000, 4.00000000000000000000, 4.00000000000000000000, 4.00000000000000000000, 4.00000000000000000000, 0.00000000000000000000, 4.00000000000000000000, 2.00000000000000000000, 4.00000000000000000000
3.00000000000000000000, 0.00000000000000000000, 5040.51269531250000000000, 4235.89746093750000000000, 4194.35888671875000000000, 4389.74365234375000000000, 4115.38427734375000000000, 4416.92285156250000000000, 3836.92309570312500000000, 4447.17919921875000000000, 4144.61523437500000000000, 3984.61523437500000000000, 4251.79492187500000000000, 3865.12817382812500000000, 4375.38427734375000000000, 4009.74340820312500000000, 454.00000000000000000000, 1663.00000000000000000000, 1711.00000000000000000000, 0.00000000000000000000, 0.00000000000000000000, 0.00000000000000000000, 90.00000000000000000000, 765.00000000000000000000, 4.00000000000000000000, 4.00000000000000000000, 2.00000000000000000000, 4.00000000000000000000, 4.00000000000000000000, 4.00000000000000000000, 4.00000000000000000000, 3.00000000000000000000, 4.00000000000000000000, 4.00000000000000000000, 4.00000000000000000000, 4.00000000000000000000, 0.00000000000000000000, 4.00000000000000000000, 2.00000000000000000000, 4.00000000000000000000
4.00000000000000000000, 0.00000000000000000000, 5042.05126953125000000000, 4241.02539062500000000000, 4196.41015625000000000000, 4390.25634765625000000000, 4116.92285156250000000000, 4421.53857421875000000000, 3841.02563476562500000000, 4441.53857421875000000000, 4138.46142578125000000000, 3977.43579101562500000000, 4253.33300781250000000000, 3875.38452148437500000000, 4382.56396484375000000000, 4018.97436523437500000000, 456.00000000000000000000, 1659.00000000000000000000, 1711.00000000000000000000, 0.00000000000000000000, 0.00000000000000000000, 0.00000000000000000000, 90.00000000000000000000, 773.00000000000000000000, 4.00000000000000000000, 4.00000000000000000000, 2.00000000000000000000, 4.00000000000000000000, 4.00000000000000000000, 4.00000000000000000000, 4.00000000000000000000, 3.00000000000000000000, 4.00000000000000000000, 4.00000000000000000000, 4.00000000000000000000, 4.00000000000000000000, 0.00000000000000000000, 4.00000000000000000000, 2.00000000000000000000, 4.00000000000000000000
5.00000000000000000000, 0.00000000000000000000, 5046.15380859375000000000, 4248.20507812500000000000, 4204.61523437500000000000, 4393.84619140625000000000, 4113.33300781250000000000, 4420.51269531250000000000, 3838.97436523437500000000, 4452.82031250000000000000, 4142.56396484375000000000, 3974.35888671875000000000, 4252.30761718750000000000, 3879.48706054687500000000, 4385.12792968750000000000, 4023.58959960937500000000, 428.00000000000000000000, 1667.00000000000000000000, 1707.00000000000000000000, 0.00000000000000000000, 0.00000000000000000000, 0.00000000000000000000, 90.00000000000000000000, 781.00000000000000000000, 4.00000000000000000000, 4.00000000000000000000, 2.00000000000000000000, 4.00000000000000000000, 4.00000000000000000000, 4.00000000000000000000, 4.00000000000000000000, 3.00000000000000000000, 4.00000000000000000000, 4.00000000000000000000, 4.00000000000000000000, 4.00000000000000000000, 0.00000000000000000000, 4.00000000000000000000, 2.00000000000000000000, 4.00000000000000000000
6.00000000000000000000, 0.00000000000000000000, 5047.17919921875000000000, 4238.97412109375000000000, 4203.07666015625000000000, 4388.71777343750000000000, 4114.87158203125000000000, 4422.56396484375000000000, 3841.53833007812500000000, 4454.35888671875000000000, 4147.69238281250000000000, 3980.00000000000000000000, 4249.74365234375000000000, 3870.76904296875000000000, 4377.43554687500000000000, 4014.35888671875000000000, 405.00000000000000000000, 1659.00000000000000000000, 1707.00000000000000000000, 0.00000000000000000000, 0.00000000000000000000, 0.00000000000000000000, 90.00000000000000000000, 789.00000000000000000000, 4.00000000000000000000, 4.00000000000000000000, 2.00000000000000000000, 4.00000000000000000000, 4.00000000000000000000, 4.00000000000000000000, 3.00000000000000000000, 3.00000000000000000000, 4.00000000000000000000, 4.00000000000000000000, 4.00000000000000000000, 4.00000000000000000000, 0.00000000000000000000, 4.00000000000000000000, 2.00000000000000000000, 4.00000000000000000000
7.00000000000000000000, 0.00000000000000000000, 5047.17919921875000000000, 4237.94873046875000000000, 4208.71777343750000000000, 4389.74365234375000000000, 4121.02539062500000000000, 4425.12792968750000000000, 3847.17944335937500000000, 4458.97412109375000000000, 4154.87158203125000000000, 3995.89721679687500000000, 4250.25634765625000000000, 3873.33325195312500000000, 4385.64111328125000000000, 4015.89721679687500000000, 382.00000000000000000000, 1667.00000000000000000000, 1703.00000000000000000000, 0.00000000000000000000, 0.00000000000000000000, 0.00000000000000000000, 90.00000000000000000000, 796.00000000000000000000, 4.00000000000000000000, 4.00000000000000000000, 2.00000000000000000000, 4.00000000000000000000, 4.00000000000000000000, 4.00000000000000000000, 3.00000000000000000000, 3.00000000000000000000, 4.00000000000000000000, 4.00000000000000000000, 4.00000000000000000000, 4.00000000000000000000, 0.00000000000000000000, 4.00000000000000000000, 2.00000000000000000000, 4.00000000000000000000
8.00000000000000000000, 0.00000000000000000000, 5044.10253906250000000000, 4241.02539062500000000000, 4205.64111328125000000000, 4388.71777343750000000000, 4118.97412109375000000000, 4409.23046875000000000000, 3837.94873046875000000000, 4463.07666015625000000000, 4145.64111328125000000000, 3997.43579101562500000000, 4252.30761718750000000000, 3874.87158203125000000000, 4386.66650390625000000000, 4014.87158203125000000000, 384.00000000000000000000, 1659.00000000000000000000, 1703.00000000000000000000, 0.00000000000000000000, 0.00000000000000000000, 0.00000000000000000000, 90.00000000000000000000, 804.00000000000000000000, 4.00000000000000000000, 4.00000000000000000000, 2.00000000000000000000, 4.00000000000000000000, 4.00000000000000000000, 4.00000000000000000000, 3.00000000000000000000, 3.00000000000000000000, 4.00000000000000000000, 4.00000000000000000000, 4.00000000000000000000, 4.00000000000000000000, 0.00000000000000000000, 4.00000000000000000000, 2.00000000000000000000, 4.00000000000000000000
9.00000000000000000000, 0.00000000000000000000, 5043.07666015625000000000, 4254.35888671875000000000, 4206.15380859375000000000, 4402.05126953125000000000, 4120.51269531250000000000, 4413.33300781250000000000, 3836.92309570312500000000, 4464.10253906250000000000, 4146.15380859375000000000, 4002.56396484375000000000, 4252.30761718750000000000, 3879.48706054687500000000, 4391.28173828125000000000, 4021.02563476562500000000, 421.00000000000000000000, 1667.00000000000000000000, 1707.00000000000000000000, 0.00000000000000000000, 0.00000000000000000000, 0.00000000000000000000, 90.00000000000000000000, 812.00000000000000000000, 4.00000000000000000000, 4.00000000000000000000, 2.00000000000000000000, 4.00000000000000000000, 4.00000000000000000000, 4.00000000000000000000, 3.00000000000000000000, 3.00000000000000000000, 4.00000000000000000000, 4.00000000000000000000, 4.00000000000000000000, 4.00000000000000000000, 0.00000000000000000000, 4.00000000000000000000, 2.00000000000000000000, 4.00000000000000000000
10.00000000000000000000, 0.00000000000000000000, 5046.15380859375000000000, 4257.94873046875000000000, 4212.30761718750000000000, 4412.30761718750000000000, 4120.00000000000000000000, 4430.76904296875000000000, 3846.66650390625000000000, 4457.43554687500000000000, 4155.38427734375000000000, 3991.79467773437500000000, 4251.28173828125000000000, 3886.15380859375000000000, 4397.94873046875000000000, 4028.71777343750000000000, 430.00000000000000000000, 1667.00000000000000000000, 1703.00000000000000000000, 0.00000000000000000000, 0.00000000000000000000, 0.00000000000000000000, 90.00000000000000000000, 820.00000000000000000000, 4.00000000000000000000, 4.00000000000000000000, 2.00000000000000000000, 4.00000000000000000000, 4.00000000000000000000, 4.00000000000000000000, 3.00000000000000000000, 3.00000000000000000000, 4.00000000000000000000, 4.00000000000000000000, 4.00000000000000000000, 4.00000000000000000000, 0.00000000000000000000, 4.00000000000000000000, 2.00000000000000000000, 4.00000000000000000000
11.00000000000000000000, 0.00000000000000000000, 5050.76904296875000000000, 4263.07666015625000000000, 4227.69238281250000000000, 4418.46142578125000000000, 4138.97412109375000000000, 4443.07666015625000000000, 3855.38452148437500000000, 4466.66650390625000000000, 4167.17919921875000000000, 3986.66650390625000000000, 4250.25634765625000000000, 3900.51269531250000000000, 4404.10253906250000000000, 4042.05126953125000000000, 423.00000000000000000000, 1663.00000000000000000000, 1707.00000000000000000000, 0.00000000000000000000, 0.00000000000000000000, 0.00000000000000000000, 90.00000000000000000000, 828.00000000000000000000, 4.00000000000000000000, 4.00000000000000000000, 2.00000000000000000000, 4.00000000000000000000, 4.00000000000000000000, 4.00000000000000000000, 3.00000000000000000000, 3.00000000000000000000, 4.00000000000000000000, 4.00000000000000000000, 4.00000000000000000000, 4.00000000000000000000, 0.00000000000000000000, 4.00000000000000000000, 2.00000000000000000000, 4.00000000000000000000
12.00000000000000000000, 0.00000000000000000000, 5051.79492187500000000000, 4260.51269531250000000000, 4227.17919921875000000000, 4406.66650390625000000000, 4140.00000000000000000000, 4435.89746093750000000000, 3850.25634765625000000000, 4463.58984375000000000000, 4160.00000000000000000000, 3997.94873046875000000000, 4249.74365234375000000000, 3894.35888671875000000000, 4397.43554687500000000000, 4035.89721679687500000000, 0.00000000000000000000, 1667.00000000000000000000, 1707.00000000000000000000, 0.00000000000000000000, 0.00000000000000000000, 0.00000000000000000000, 90.00000000000000000000, 836.00000000000000000000, 4.00000000000000000000, 4.00000000000000000000, 2.00000000000000000000, 4.00000000000000000000, 4.00000000000000000000, 4.00000000000000000000, 3.00000000000000000000, 3.00000000000000000000, 4.00000000000000000000, 4.00000000000000000000, 4.00000000000000000000, 4.00000000000000000000, 0.00000000000000000000, 4.00000000000000000000, 2.00000000000000000000, 4.00000000000000000000
13.00000000000000000000, 0.00000000000000000000, 5046.66650390625000000000, 4261.02539062500000000000, 4222.05126953125000000000, 4402.56396484375000000000, 4136.92285156250000000000, 4430.76904296875000000000, 3844.61523437500000000000, 4466.15380859375000000000, 4157.43603515625000000000, 4015.38452148437500000000, 4248.71777343750000000000, 3890.76904296875000000000, 4403.07666015625000000000, 4033.33325195312500000000, 420.00000000000000000000, 1667.00000000000000000000, 1711.00000000000000000000, 0.00000000000000000000, 0.00000000000000000000, 0.00000000000000000000, 90.00000000000000000000, 844.00000000000000000000, 4.00000000000000000000, 4.00000000000000000000, 2.00000000000000000000, 4.00000000000000000000, 4.00000000000000000000, 4.00000000000000000000, 3.00000000000000000000, 3.00000000000000000000, 4.00000000000000000000, 4.00000000000000000000, 4.00000000000000000000, 4.00000000000000000000, 0.00000000000000000000, 4.00000000000000000000, 2.00000000000000000000, 4.00000000000000000000
14.00000000000000000000, 0.00000000000000000000, 5041.02539062500000000000, 4250.76904296875000000000, 4213.84619140625000000000, 4401.02539062500000000000, 4130.76904296875000000000, 4421.53857421875000000000, 3837.43579101562500000000, 4465.64111328125000000000, 4155.38427734375000000000, 4002.56396484375000000000, 4249.74365234375000000000, 3888.71777343750000000000, 4395.89746093750000000000, 4029.74340820312500000000, 430.00000000000000000000, 1667.00000000000000000000, 1707.00000000000000000000, 0.00000000000000000000, 0.00000000000000000000, 0.00000000000000000000, 90.00000000000000000000, 851.00000000000000000000, 4.00000000000000000000, 4.00000000000000000000, 2.00000000000000000000, 4.00000000000000000000, 4.00000000000000000000, 4.00000000000000000000, 3.00000000000000000000, 3.00000000000000000000, 4.00000000000000000000, 4.00000000000000000000, 4.00000000000000000000, 4.00000000000000000000, 0.00000000000000000000, 4.00000000000000000000, 2.00000000000000000000, 4.00000000000000000000
